Typical Measured Spectrum of Semrock FF01-593/LP Optical Filter	
For wavelengths between 320 and 1120 nm, values near or below 3e-7 (Optical Density 6.5) are measurement noise limited.
For wavelengths < 320 nm and > 1120 nm, values near or below 3e-6 (Optical Density 5.5) are measurement noise limited. 
Data format:  Wavelength (nm) <tab> Transmission (0 to 1)
265.0	7.2475e-05
265.2	7.311e-05
265.4	7.3751e-05
265.6	7.4397e-05
265.8	7.5049e-05
266.0	7.5706e-05
266.2	7.6369e-05
266.4	7.7038e-05
266.6	7.7713e-05
266.8	7.8394e-05
267.0	7.9081e-05
267.2	7.8972e-05
267.4	7.8816e-05
267.6	7.8661e-05
267.8	7.8507e-05
268.0	7.8352e-05
268.2	7.8198e-05
268.4	7.8044e-05
268.6	7.7891e-05
268.8	7.7737e-05
269.0	7.7584e-05
269.2	7.7432e-05
269.4	7.728e-05
269.6	7.7127e-05
269.8	7.6976e-05
270.0	7.6824e-05
270.2	7.6673e-05
270.4	7.6522e-05
270.6	7.6372e-05
270.8	7.1539e-05
271.0	5.6698e-05
271.2	4.4935e-05
271.4	3.5613e-05
271.6	2.8225e-05
271.8	2.2369e-05
272.0	1.7729e-05
272.2	1.4051e-05
272.4	1.1136e-05
272.6	8.8255e-06
272.8	6.9945e-06
273.0	5.5435e-06
273.2	4.3934e-06
273.4	3.482e-06
273.6	2.7596e-06
273.8	2.1871e-06
274.0	1.7334e-06
274.2	1.3738e-06
274.4	1.0888e-06
274.6	9.8689e-07
274.8	9.7474e-07
275.0	9.6274e-07
275.2	9.5446e-07
275.4	9.4625e-07
275.6	1.0497e-06
275.8	1.3028e-06
276.0	1.617e-06
276.2	2.0071e-06
276.4	2.4911e-06
276.6	3.092e-06
276.8	3.8377e-06
277.0	4.7633e-06
277.2	5.9122e-06
277.4	7.3381e-06
277.6	9.108e-06
277.8	1.1305e-05
278.0	1.4031e-05
278.2	1.7415e-05
278.4	2.1616e-05
278.6	2.6829e-05
278.8	3.33e-05
279.0	4.1332e-05
279.2	5.13e-05
279.4	4.9852e-05
279.6	4.6158e-05
279.8	4.2738e-05
280.0	3.9571e-05
280.2	3.6639e-05
280.4	3.3925e-05
280.6	3.1411e-05
280.8	2.9083e-05
281.0	2.6928e-05
281.2	2.4933e-05
281.4	2.3086e-05
281.6	2.1375e-05
281.8	1.9791e-05
282.0	1.8325e-05
282.2	1.6967e-05
282.4	1.571e-05
282.6	1.4546e-05
282.8	1.3468e-05
283.0	1.2709e-05
283.2	1.3077e-05
283.4	1.3455e-05
283.6	1.3844e-05
283.8	1.4244e-05
284.0	1.4656e-05
284.2	1.508e-05
284.4	1.5517e-05
284.6	1.5965e-05
284.8	1.6427e-05
285.0	1.6902e-05
285.2	1.6304e-05
285.4	1.5727e-05
285.6	1.3774e-05
285.8	1.1249e-05
286.0	9.1875e-06
286.2	7.5034e-06
286.4	6.1281e-06
286.6	5.0048e-06
286.8	4.0875e-06
287.0	3.3382e-06
287.2	2.7264e-06
287.4	2.2266e-06
287.6	1.8185e-06
287.8	1.4852e-06
288.0	1.2129e-06
288.2	9.9061e-07
288.4	8.0904e-07
288.6	6.6074e-07
288.8	5.3963e-07
289.0	4.4072e-07
289.2	3.5994e-07
289.4	4.297e-07
289.6	5.2903e-07
289.8	6.5131e-07
290.0	8.0186e-07
290.2	9.8721e-07
290.4	1.2154e-06
290.6	1.4963e-06
290.8	1.8422e-06
291.0	2.268e-06
291.2	2.7923e-06
291.4	3.4377e-06
291.6	4.2324e-06
291.8	5.2107e-06
292.0	6.4151e-06
292.2	7.8979e-06
292.4	9.7235e-06
292.6	1.1971e-05
292.8	1.4738e-05
293.0	1.6278e-05
293.2	1.36e-05
293.4	1.1362e-05
293.6	9.4927e-06
293.8	7.9308e-06
294.0	6.6259e-06
294.2	5.5357e-06
294.4	4.6249e-06
294.6	3.8639e-06
294.8	3.2282e-06
295.0	2.697e-06
295.2	2.8205e-06
295.4	2.9495e-06
295.6	3.0845e-06
295.8	3.2257e-06
296.0	3.3734e-06
296.2	3.5277e-06
296.4	3.6892e-06
296.6	3.8581e-06
296.8	4.0346e-06
297.0	4.2193e-06
297.2	4.4124e-06
297.4	4.6143e-06
297.6	4.8255e-06
297.8	5.0464e-06
298.0	5.2196e-06
298.2	5.1591e-06
298.4	5.0994e-06
298.6	5.0403e-06
298.8	4.9819e-06
299.0	4.9242e-06
299.2	4.8671e-06
299.4	4.8107e-06
299.6	4.755e-06
299.8	4.6999e-06
300.0	4.6454e-06
300.2	4.5916e-06
300.4	4.5384e-06
300.6	4.4858e-06
300.8	4.4338e-06
301.0	4.3824e-06
301.2	4.3317e-06
301.4	4.2815e-06
301.6	4.2319e-06
301.8	4.3428e-06
302.0	4.5928e-06
302.2	4.8573e-06
302.4	5.1369e-06
302.6	5.4327e-06
302.8	5.7454e-06
303.0	6.0762e-06
303.2	6.426e-06
303.4	6.796e-06
303.6	7.1873e-06
303.8	7.6011e-06
304.0	8.0387e-06
304.2	8.5015e-06
304.4	8.9909e-06
304.6	9.5086e-06
304.8	1.0056e-05
305.0	1.0635e-05
305.2	1.3532e-05
305.4	1.7219e-05
305.6	2.0703e-05
305.8	2.0483e-05
306.0	2.0265e-05
306.2	2.0049e-05
306.4	1.9835e-05
306.6	1.9624e-05
306.8	1.9415e-05
307.0	1.9208e-05
307.2	1.9003e-05
307.4	1.8801e-05
307.6	1.86e-05
307.8	1.8402e-05
308.0	1.8206e-05
308.2	1.8012e-05
308.4	1.782e-05
308.6	1.7631e-05
308.8	1.7443e-05
309.0	1.7257e-05
309.2	1.7073e-05
309.4	1.6902e-05
309.6	1.6742e-05
309.8	1.6583e-05
310.0	1.6425e-05
310.2	1.6269e-05
310.4	1.6114e-05
310.6	1.5961e-05
310.8	1.581e-05
311.0	1.566e-05
311.2	1.5511e-05
311.4	1.5363e-05
311.6	1.5217e-05
311.8	1.5073e-05
312.0	1.493e-05
312.2	1.4788e-05
312.4	1.4647e-05
312.6	1.4508e-05
312.8	1.437e-05
313.0	1.4234e-05
313.2	1.3553e-05
313.4	1.286e-05
313.6	1.2202e-05
313.8	1.1579e-05
314.0	1.0987e-05
314.2	1.0425e-05
314.4	9.892e-06
314.6	9.3863e-06
314.8	8.9065e-06
315.0	8.4511e-06
315.2	8.0191e-06
315.4	7.6091e-06
315.6	7.2202e-06
315.8	6.851e-06
316.0	6.5008e-06
316.2	6.1685e-06
316.4	5.8531e-06
316.6	5.5539e-06
316.8	5.346e-06
317.0	5.3442e-06
317.2	5.3423e-06
317.4	5.3404e-06
317.6	5.3385e-06
317.8	5.3366e-06
318.0	5.3347e-06
318.2	5.3328e-06
318.4	5.3309e-06
318.6	5.329e-06
318.8	5.3271e-06
319.0	5.3252e-06
319.2	5.3234e-06
319.4	5.3215e-06
319.6	5.3196e-06
319.8	5.3177e-06
320.0	5.3158e-06
320.2	5.3139e-06
320.4	5.3121e-06
320.6	5.208e-06
320.8	5.0504e-06
321.0	4.8976e-06
321.2	4.7495e-06
321.4	4.6058e-06
321.6	4.4664e-06
321.8	4.3313e-06
322.0	4.2003e-06
322.2	4.0732e-06
322.4	3.95e-06
322.6	3.8305e-06
322.8	3.7146e-06
323.0	3.6022e-06
323.2	3.4933e-06
323.4	3.3876e-06
323.6	3.2851e-06
323.8	3.1857e-06
324.0	3.0893e-06
324.2	2.9983e-06
324.4	3.0653e-06
324.6	3.1339e-06
324.8	3.2039e-06
325.0	3.2756e-06
325.2	3.3488e-06
325.4	3.4237e-06
325.6	3.5003e-06
325.8	3.5786e-06
326.0	3.6586e-06
326.2	3.7404e-06
326.4	3.8241e-06
326.6	3.9096e-06
326.8	3.997e-06
327.0	4.0864e-06
327.2	4.1778e-06
327.4	4.2712e-06
327.6	4.3667e-06
327.8	4.4644e-06
328.0	4.4934e-06
328.2	4.4156e-06
328.4	4.3391e-06
328.6	4.264e-06
328.8	4.1901e-06
329.0	4.1175e-06
329.2	4.0462e-06
329.4	3.9761e-06
329.6	3.9073e-06
329.8	3.8396e-06
330.0	3.7731e-06
330.2	3.7077e-06
330.4	3.6435e-06
330.6	3.5804e-06
330.8	3.5184e-06
331.0	3.4575e-06
331.2	3.3976e-06
331.4	3.3387e-06
331.6	3.2809e-06
331.8	3.409e-06
332.0	3.5966e-06
332.2	3.7945e-06
332.4	4.0033e-06
332.6	4.2236e-06
332.8	4.4561e-06
333.0	4.7013e-06
333.2	4.96e-06
333.4	5.2329e-06
333.6	5.5209e-06
333.8	5.8247e-06
334.0	6.1453e-06
334.2	6.4834e-06
334.4	6.8402e-06
334.6	7.2166e-06
334.8	7.6138e-06
335.0	8.0328e-06
335.2	9.0342e-06
335.4	1.0161e-05
335.6	1.1045e-05
335.8	1.0976e-05
336.0	1.0907e-05
336.2	1.0838e-05
336.4	1.077e-05
336.6	1.0703e-05
336.8	1.0636e-05
337.0	1.0569e-05
337.2	1.0503e-05
337.4	1.0437e-05
337.6	1.0371e-05
337.8	1.0306e-05
338.0	1.0241e-05
338.2	1.0177e-05
338.4	1.0113e-05
338.6	1.005e-05
338.8	9.9868e-06
339.0	9.9242e-06
339.2	9.8619e-06
339.4	9.9292e-06
339.6	1.0068e-05
339.8	1.0208e-05
340.0	1.035e-05
340.2	1.0495e-05
340.4	1.0641e-05
340.6	1.0789e-05
340.8	1.094e-05
341.0	1.1092e-05
341.2	1.1247e-05
341.4	1.1404e-05
341.6	1.1563e-05
341.8	1.1724e-05
342.0	1.1887e-05
342.2	1.2053e-05
342.4	1.2221e-05
342.6	1.2391e-05
342.8	1.2564e-05
343.0	1.2737e-05
343.2	1.2832e-05
343.4	1.2927e-05
343.6	1.3024e-05
343.8	1.3121e-05
344.0	1.3218e-05
344.2	1.3317e-05
344.4	1.3416e-05
344.6	1.3516e-05
344.8	1.3617e-05
345.0	1.3718e-05
345.2	1.382e-05
345.4	1.3923e-05
345.6	1.4027e-05
345.8	1.4132e-05
346.0	1.4237e-05
346.2	1.4343e-05
346.4	1.445e-05
346.6	1.4558e-05
346.8	1.4806e-05
347.0	1.526e-05
347.2	1.5729e-05
347.4	1.6212e-05
347.6	1.671e-05
347.8	1.7223e-05
348.0	1.7752e-05
348.2	1.8297e-05
348.4	1.8859e-05
348.6	1.9439e-05
348.8	2.0036e-05
349.0	2.0651e-05
349.2	2.1285e-05
349.4	2.1939e-05
349.6	2.2613e-05
349.8	2.3307e-05
350.0	2.4023e-05
350.2	2.4761e-05
350.4	2.5521e-05
350.6	2.4887e-05
350.8	2.3955e-05
351.0	2.3058e-05
351.2	2.2195e-05
351.4	2.1364e-05
351.6	2.0564e-05
351.8	1.9794e-05
352.0	1.9052e-05
352.2	1.8339e-05
352.4	1.7652e-05
352.6	1.6991e-05
352.8	1.6355e-05
353.0	1.5743e-05
353.2	1.5153e-05
353.4	1.4586e-05
353.6	1.4039e-05
353.8	1.3514e-05
354.0	1.3008e-05
354.2	1.2497e-05
354.4	1.1924e-05
354.6	1.1377e-05
354.8	1.0856e-05
355.0	1.0358e-05
355.2	9.8829e-06
355.4	9.4297e-06
355.6	8.9973e-06
355.8	8.5848e-06
356.0	8.1911e-06
356.2	7.8155e-06
356.4	7.4572e-06
356.6	7.1152e-06
356.8	6.789e-06
357.0	6.4777e-06
357.2	6.1807e-06
357.4	5.8973e-06
357.6	5.6269e-06
357.8	5.3689e-06
358.0	5.3612e-06
358.2	5.4984e-06
358.4	5.6392e-06
358.6	5.7837e-06
358.8	5.9318e-06
359.0	6.0837e-06
359.2	6.2395e-06
359.4	6.3992e-06
359.6	6.5631e-06
359.8	6.7312e-06
360.0	6.9036e-06
360.2	7.0803e-06
360.4	7.2617e-06
360.6	7.4476e-06
360.8	7.6383e-06
361.0	7.8339e-06
361.2	8.0346e-06
361.4	8.2403e-06
361.6	8.4619e-06
361.8	8.8982e-06
362.0	9.357e-06
362.2	9.8394e-06
362.4	1.0347e-05
362.6	1.088e-05
362.8	1.1441e-05
363.0	1.2031e-05
363.2	1.2651e-05
363.4	1.3304e-05
363.6	1.399e-05
363.8	1.4711e-05
364.0	1.5469e-05
364.2	1.6267e-05
364.4	1.7106e-05
364.6	1.7988e-05
364.8	1.8915e-05
365.0	1.989e-05
365.2	2.0051e-05
365.4	2.0213e-05
365.6	2.0376e-05
365.8	2.054e-05
366.0	2.0706e-05
366.2	2.0873e-05
366.4	2.1041e-05
366.6	2.1211e-05
366.8	2.1382e-05
367.0	2.1353e-05
367.2	2.0948e-05
367.4	2.0551e-05
367.6	2.0162e-05
367.8	1.978e-05
368.0	1.9405e-05
368.2	1.9037e-05
368.4	1.8676e-05
368.6	1.8322e-05
368.8	1.7975e-05
369.0	1.7635e-05
369.2	1.73e-05
369.4	1.6973e-05
369.6	1.6651e-05
369.8	1.6335e-05
370.0	1.6026e-05
370.2	1.5722e-05
370.4	1.5424e-05
370.6	1.5132e-05
370.8	1.4826e-05
371.0	1.452e-05
371.2	1.4221e-05
371.4	1.3927e-05
371.6	1.3639e-05
371.8	1.3358e-05
372.0	1.3082e-05
372.2	1.2812e-05
372.4	1.2548e-05
372.6	1.2289e-05
372.8	1.2035e-05
373.0	1.1787e-05
373.2	1.1543e-05
373.4	1.1305e-05
373.6	1.1072e-05
373.8	1.0843e-05
374.0	1.0619e-05
374.2	1.04e-05
374.4	1.0209e-05
374.6	1.0189e-05
374.8	1.0168e-05
375.0	1.0147e-05
375.2	1.0127e-05
375.4	1.0106e-05
375.6	1.0086e-05
375.8	1.0065e-05
376.0	1.0045e-05
376.2	1.0025e-05
376.4	1.0004e-05
376.6	9.9841e-06
376.8	9.9639e-06
377.0	9.9437e-06
377.2	9.9236e-06
377.4	9.9035e-06
377.6	9.8835e-06
377.8	9.8634e-06
378.0	9.8435e-06
378.2	9.947e-06
378.4	1.0166e-05
378.6	1.0389e-05
378.8	1.0618e-05
379.0	1.0852e-05
379.2	1.109e-05
379.4	1.1334e-05
379.6	1.1584e-05
379.8	1.1839e-05
380.0	1.2099e-05
380.2	1.2365e-05
380.4	1.2637e-05
380.6	1.2915e-05
380.8	1.32e-05
381.0	1.349e-05
381.2	1.3787e-05
381.4	1.409e-05
381.6	1.44e-05
381.8	1.4717e-05
382.0	1.536e-05
382.2	1.6058e-05
382.4	1.6786e-05
382.6	1.7548e-05
382.8	1.8345e-05
383.0	1.9177e-05
383.2	2.0047e-05
383.4	2.0957e-05
383.6	2.1908e-05
383.8	2.2903e-05
384.0	2.3942e-05
384.2	2.5029e-05
384.4	2.6165e-05
384.6	2.7352e-05
384.8	2.8594e-05
385.0	2.9891e-05
385.2	3.1248e-05
385.4	3.2666e-05
385.6	3.4283e-05
385.8	3.6244e-05
386.0	3.8317e-05
386.2	4.0509e-05
386.4	4.2826e-05
386.6	4.5275e-05
386.8	4.7865e-05
387.0	5.0603e-05
387.2	5.3497e-05
387.4	5.6557e-05
387.6	5.9792e-05
387.8	6.3212e-05
388.0	6.6827e-05
388.2	7.065e-05
388.4	7.4691e-05
388.6	7.8963e-05
388.8	8.3479e-05
389.0	8.8254e-05
389.2	9.3302e-05
389.4	5.6962e-05
389.6	2.9515e-05
389.8	1.5294e-05
390.0	7.9246e-06
390.2	4.1062e-06
390.4	2.1277e-06
390.6	1.1025e-06
390.8	5.7126e-07
391.0	2.96e-07
391.2	1.5338e-07
391.4	7.9474e-08
391.6	4.118e-08
391.8	2.1338e-08
392.0	1.1056e-08
392.2	1.0938e-08
392.4	1.0821e-08
392.6	1.0705e-08
392.8	1.059e-08
393.0	1.1199e-08
393.2	1.2641e-08
393.4	1.4269e-08
393.6	1.6107e-08
393.8	1.8182e-08
394.0	2.0524e-08
394.2	2.3168e-08
394.4	2.6152e-08
394.6	2.952e-08
394.8	3.3323e-08
395.0	3.7615e-08
395.2	4.246e-08
395.4	4.7929e-08
395.6	5.4103e-08
395.8	6.1072e-08
396.0	6.8938e-08
396.2	7.7818e-08
396.4	8.7841e-08
396.6	9.9155e-08
396.8	1.0e-07
397.0	1.0e-07
397.2	1.0e-07
397.4	1.0e-07
397.6	1.0e-07
397.8	1.0e-07
398.0	1.0e-07
398.2	1.0e-07
398.4	1.0e-07
398.6	1.0e-07
398.8	1.0e-07
399.0	1.0e-07
399.2	1.0e-07
399.4	1.0e-07
399.6	1.0e-07
399.8	1.0e-07
400.0	1.0e-07
400.2	1.0e-07
400.4	1.0e-07
400.6	1.0e-07
400.8	1.0e-07
401.0	1.0e-07
401.2	1.0e-07
401.4	1.0e-07
401.6	1.0e-07
401.8	1.0e-07
402.0	1.0e-07
402.2	1.0e-07
402.4	1.0e-07
402.6	1.0e-07
402.8	1.0e-07
403.0	1.0e-07
403.2	1.0e-07
403.4	1.0e-07
403.6	1.0e-07
403.8	1.0e-07
404.0	1.0e-07
404.2	1.0e-07
404.4	1.0e-07
404.6	1.0e-07
404.8	1.0e-07
405.0	1.0e-07
405.2	1.0e-07
405.4	1.0e-07
405.6	1.0e-07
405.8	1.0e-07
406.0	1.0e-07
406.2	1.0e-07
406.4	1.0e-07
406.6	1.0e-07
406.8	1.0e-07
407.0	1.0e-07
407.2	1.0e-07
407.4	1.0e-07
407.6	1.0e-07
407.8	1.0e-07
408.0	1.0e-07
408.2	1.0e-07
408.4	1.0e-07
408.6	1.0e-07
408.8	1.0e-07
409.0	1.0e-07
409.2	1.0e-07
409.4	1.0e-07
409.6	1.0e-07
409.8	1.0e-07
410.0	1.0e-07
410.2	1.0e-07
410.4	1.0e-07
410.6	1.0e-07
410.8	1.0e-07
411.0	1.0e-07
411.2	1.0e-07
411.4	1.0e-07
411.6	1.0e-07
411.8	1.0e-07
412.0	1.0e-07
412.2	1.0e-07
412.4	1.0e-07
412.6	1.0e-07
412.8	1.0e-07
413.0	1.0e-07
413.2	1.0e-07
413.4	1.0e-07
413.6	1.0e-07
413.8	1.0e-07
414.0	1.0e-07
414.2	1.0e-07
414.4	1.0e-07
414.6	1.0e-07
414.8	1.0e-07
415.0	1.0e-07
415.2	1.0e-07
415.4	1.0e-07
415.6	1.0e-07
415.8	1.0e-07
416.0	1.0e-07
416.2	1.0e-07
416.4	1.0e-07
416.6	1.0e-07
416.8	1.0e-07
417.0	1.0e-07
417.2	1.0e-07
417.4	1.0e-07
417.6	1.0e-07
417.8	1.0e-07
418.0	1.0e-07
418.2	1.0e-07
418.4	1.0e-07
418.6	1.0e-07
418.8	1.0e-07
419.0	1.0e-07
419.2	1.0e-07
419.4	1.0e-07
419.6	1.0e-07
419.8	1.0e-07
420.0	1.0e-07
420.2	1.0e-07
420.4	1.0e-07
420.6	1.0e-07
420.8	1.0e-07
421.0	1.0e-07
421.2	1.0e-07
421.4	1.0e-07
421.6	1.0e-07
421.8	1.0e-07
422.0	1.0e-07
422.2	1.0e-07
422.4	1.0e-07
422.6	1.0e-07
422.8	1.0e-07
423.0	1.0e-07
423.2	1.0e-07
423.4	1.0e-07
423.6	1.0e-07
423.8	1.0e-07
424.0	1.0e-07
424.2	1.0e-07
424.4	1.0e-07
424.6	1.0e-07
424.8	1.0e-07
425.0	1.0e-07
425.2	1.0e-07
425.4	1.0e-07
425.6	1.0e-07
425.8	1.0e-07
426.0	1.0e-07
426.2	1.0e-07
426.4	2.8459e-07
426.6	1.2546e-06
426.8	5.5311e-06
427.0	2.4384e-05
427.2	2.5097e-05
427.4	2.5831e-05
427.6	2.6586e-05
427.8	2.7363e-05
428.0	2.8163e-05
428.2	2.8987e-05
428.4	2.9834e-05
428.6	3.0707e-05
428.8	3.1604e-05
429.0	3.2528e-05
429.2	3.3479e-05
429.4	3.4458e-05
429.6	3.5466e-05
429.8	3.6503e-05
430.0	3.757e-05
430.2	3.8637e-05
430.4	3.943e-05
430.6	4.024e-05
430.8	4.1066e-05
431.0	4.1909e-05
431.2	4.2769e-05
431.4	4.3647e-05
431.6	4.4543e-05
431.8	4.5458e-05
432.0	4.6391e-05
432.2	4.7343e-05
432.4	4.8315e-05
432.6	4.9307e-05
432.8	5.032e-05
433.0	5.1353e-05
433.2	5.2407e-05
433.4	5.3483e-05
433.6	5.4581e-05
433.8	5.5701e-05
434.0	5.6508e-05
434.2	5.7049e-05
434.4	5.7595e-05
434.6	5.8146e-05
434.8	5.8702e-05
435.0	5.9264e-05
435.2	5.9831e-05
435.4	6.0403e-05
435.6	6.0981e-05
435.8	6.1565e-05
436.0	6.2154e-05
436.2	6.2748e-05
436.4	6.3349e-05
436.6	6.3955e-05
436.8	6.4567e-05
437.0	6.5185e-05
437.2	6.5808e-05
437.4	6.6438e-05
437.6	6.7062e-05
437.8	6.7128e-05
438.0	6.7193e-05
438.2	6.7258e-05
438.4	6.7324e-05
438.6	6.7389e-05
438.8	6.7455e-05
439.0	6.752e-05
439.2	6.7586e-05
439.4	6.7652e-05
439.6	6.7718e-05
439.8	6.7783e-05
440.0	6.7849e-05
440.2	6.7915e-05
440.4	6.7981e-05
440.6	6.8048e-05
440.8	6.8114e-05
441.0	6.818e-05
441.2	6.8246e-05
441.4	6.81e-05
441.6	6.7741e-05
441.8	6.7385e-05
442.0	6.703e-05
442.2	6.6677e-05
442.4	6.6326e-05
442.6	6.5977e-05
442.8	6.563e-05
443.0	6.5284e-05
443.2	6.4941e-05
443.4	6.4599e-05
443.6	6.4259e-05
443.8	6.392e-05
444.0	6.3584e-05
444.2	6.3249e-05
444.4	6.2916e-05
444.6	6.2585e-05
444.8	6.2256e-05
445.0	6.1928e-05
445.2	6.1651e-05
445.4	6.1376e-05
445.6	6.1102e-05
445.8	6.0829e-05
446.0	6.0558e-05
446.2	6.0287e-05
446.4	6.0018e-05
446.6	5.975e-05
446.8	5.9483e-05
447.0	5.9218e-05
447.2	5.8953e-05
447.4	5.869e-05
447.6	5.8428e-05
447.8	5.8167e-05
448.0	5.7908e-05
448.2	5.7649e-05
448.4	5.7392e-05
448.6	5.7136e-05
448.8	5.6855e-05
449.0	5.655e-05
449.2	5.6247e-05
449.4	5.5945e-05
449.6	5.5645e-05
449.8	5.5347e-05
450.0	5.505e-05
450.2	5.4755e-05
450.4	5.4461e-05
450.6	5.4169e-05
450.8	5.3878e-05
451.0	5.3589e-05
451.2	5.3302e-05
451.4	5.3016e-05
451.6	5.2732e-05
451.8	5.2449e-05
452.0	5.2167e-05
452.2	5.1888e-05
452.4	5.1609e-05
452.6	5.1522e-05
452.8	5.1437e-05
453.0	5.1351e-05
453.2	5.1265e-05
453.4	5.118e-05
453.6	5.1095e-05
453.8	5.1009e-05
454.0	5.0924e-05
454.2	5.084e-05
454.4	5.0755e-05
454.6	5.067e-05
454.8	5.0586e-05
455.0	5.0502e-05
455.2	5.0417e-05
455.4	5.0333e-05
455.6	5.025e-05
455.8	5.0166e-05
456.0	5.0082e-05
456.2	4.8645e-05
456.4	4.6067e-05
456.6	4.3625e-05
456.8	4.1313e-05
457.0	3.9123e-05
457.2	3.705e-05
457.4	3.5086e-05
457.6	3.3227e-05
457.8	3.1466e-05
458.0	2.9798e-05
458.2	2.8219e-05
458.4	2.6723e-05
458.6	2.5307e-05
458.8	2.3965e-05
459.0	2.2695e-05
459.2	2.1492e-05
459.4	2.0353e-05
459.6	1.9274e-05
459.8	1.8279e-05
460.0	1.7805e-05
460.2	1.7343e-05
460.4	1.6893e-05
460.6	1.6455e-05
460.8	1.6028e-05
461.0	1.5612e-05
461.2	1.5207e-05
461.4	1.4813e-05
461.6	1.4429e-05
461.8	1.4055e-05
462.0	1.369e-05
462.2	1.3335e-05
462.4	1.2989e-05
462.6	1.2652e-05
462.8	1.2324e-05
463.0	1.2005e-05
463.2	1.1693e-05
463.4	1.139e-05
463.6	1.1169e-05
463.8	1.1003e-05
464.0	1.084e-05
464.2	1.068e-05
464.4	1.0521e-05
464.6	1.0366e-05
464.8	1.0212e-05
465.0	1.0061e-05
465.2	9.9114e-06
465.4	9.7645e-06
465.6	9.6198e-06
465.8	9.4773e-06
466.0	9.3368e-06
466.2	9.1984e-06
466.4	9.0621e-06
466.6	8.9278e-06
466.8	8.7955e-06
467.0	8.6651e-06
467.2	7.9029e-06
467.4	4.4874e-06
467.6	2.548e-06
467.8	1.4468e-06
468.0	8.2152e-07
468.2	8.1232e-07
468.4	8.0323e-07
468.6	7.9423e-07
468.8	7.8534e-07
469.0	7.7655e-07
469.2	7.6785e-07
469.4	7.5925e-07
469.6	7.5075e-07
469.8	7.4234e-07
470.0	7.3403e-07
470.2	7.2581e-07
470.4	7.1769e-07
470.6	7.0987e-07
470.8	7.0454e-07
471.0	6.9925e-07
471.2	6.94e-07
471.4	6.8879e-07
471.6	6.8362e-07
471.8	6.7849e-07
472.0	6.734e-07
472.2	6.6834e-07
472.4	6.6332e-07
472.6	6.5834e-07
472.8	6.534e-07
473.0	6.4849e-07
473.2	6.4362e-07
473.4	6.3879e-07
473.6	6.34e-07
473.8	6.2924e-07
474.0	6.2451e-07
474.2	6.1982e-07
474.4	6.1417e-07
474.6	6.079e-07
474.8	6.0169e-07
475.0	5.9554e-07
475.2	5.8946e-07
475.4	5.8344e-07
475.6	5.7748e-07
475.8	5.7158e-07
476.0	5.6574e-07
476.2	5.5996e-07
476.4	5.5424e-07
476.6	5.4858e-07
476.8	5.4298e-07
477.0	5.3743e-07
477.2	5.3194e-07
477.4	5.2651e-07
477.6	5.2113e-07
477.8	5.1581e-07
478.0	5.1118e-07
478.2	5.1125e-07
478.4	5.1132e-07
478.6	5.1139e-07
478.8	5.1146e-07
479.0	5.1153e-07
479.2	5.116e-07
479.4	5.1168e-07
479.6	5.1175e-07
479.8	5.1182e-07
480.0	5.1189e-07
480.2	5.1196e-07
480.4	5.1203e-07
480.6	5.121e-07
480.8	5.1218e-07
481.0	5.1225e-07
481.2	5.1232e-07
481.4	5.1239e-07
481.6	5.1246e-07
481.8	5.1309e-07
482.0	5.1401e-07
482.2	5.1493e-07
482.4	5.1585e-07
482.6	5.1677e-07
482.8	5.177e-07
483.0	5.1863e-07
483.2	5.1955e-07
483.4	5.2049e-07
483.6	5.2142e-07
483.8	5.2235e-07
484.0	5.2329e-07
484.2	5.2423e-07
484.4	5.2516e-07
484.6	5.261e-07
484.8	5.2705e-07
485.0	5.2799e-07
485.2	5.2894e-07
485.4	5.2899e-07
485.6	5.2547e-07
485.8	5.2198e-07
486.0	5.1851e-07
486.2	5.1506e-07
486.4	5.1164e-07
486.6	5.0823e-07
486.8	5.0485e-07
487.0	5.015e-07
487.2	4.9816e-07
487.4	4.9485e-07
487.6	4.9156e-07
487.8	4.8829e-07
488.0	4.8505e-07
488.2	4.8182e-07
488.4	4.7862e-07
488.6	4.7544e-07
488.8	4.7228e-07
489.0	4.6914e-07
489.2	4.6864e-07
489.4	4.6901e-07
489.6	4.6937e-07
489.8	4.6973e-07
490.0	4.701e-07
490.2	4.7046e-07
490.4	4.7083e-07
490.6	4.7119e-07
490.8	4.7156e-07
491.0	4.7192e-07
491.2	4.7229e-07
491.4	4.7266e-07
491.6	4.7302e-07
491.8	4.7339e-07
492.0	4.7376e-07
492.2	4.7412e-07
492.4	4.7449e-07
492.6	4.7486e-07
492.8	4.7453e-07
493.0	4.727e-07
493.2	4.7089e-07
493.4	4.6908e-07
493.6	4.6728e-07
493.8	4.6549e-07
494.0	4.637e-07
494.2	4.6192e-07
494.4	4.6015e-07
494.6	4.5838e-07
494.8	4.5662e-07
495.0	4.5487e-07
495.2	4.5312e-07
495.4	4.5138e-07
495.6	4.4965e-07
495.8	4.4793e-07
496.0	4.4621e-07
496.2	4.4449e-07
496.4	4.4279e-07
496.6	4.3969e-07
496.8	4.3646e-07
497.0	4.3325e-07
497.2	4.3007e-07
497.4	4.2691e-07
497.6	4.2377e-07
497.8	4.2066e-07
498.0	4.1757e-07
498.2	4.145e-07
498.4	4.1145e-07
498.6	4.0843e-07
498.8	4.0543e-07
499.0	4.0245e-07
499.2	3.9949e-07
499.4	3.9656e-07
499.6	3.9364e-07
499.8	3.9075e-07
500.0	3.8788e-07
500.2	3.7891e-07
500.4	3.7016e-07
500.6	3.616e-07
500.8	3.5324e-07
501.0	3.522e-07
501.2	3.5131e-07
501.4	3.5043e-07
501.6	3.4954e-07
501.8	3.4866e-07
502.0	3.4778e-07
502.2	3.469e-07
502.4	3.4602e-07
502.6	3.4515e-07
502.8	3.4428e-07
503.0	3.4341e-07
503.2	3.4254e-07
503.4	3.4168e-07
503.6	3.4081e-07
503.8	3.3995e-07
504.0	3.3909e-07
504.2	3.3824e-07
504.4	3.3738e-07
504.6	3.3908e-07
504.8	3.4332e-07
505.0	3.4762e-07
505.2	3.5196e-07
505.4	3.5636e-07
505.6	3.6082e-07
505.8	3.6533e-07
506.0	3.699e-07
506.2	3.7452e-07
506.4	3.7921e-07
506.6	3.8395e-07
506.8	3.8875e-07
507.0	3.9361e-07
507.2	3.9853e-07
507.4	4.0351e-07
507.6	4.0856e-07
507.8	4.1367e-07
508.0	4.1884e-07
508.2	4.2398e-07
508.4	4.2663e-07
508.6	4.2929e-07
508.8	4.3196e-07
509.0	4.3465e-07
509.2	4.3736e-07
509.4	4.4009e-07
509.6	4.4283e-07
509.8	4.4559e-07
510.0	4.4837e-07
510.2	4.5116e-07
510.4	4.5398e-07
510.6	4.5681e-07
510.8	4.5965e-07
511.0	4.6252e-07
511.2	4.654e-07
511.4	4.683e-07
511.6	4.7122e-07
511.8	4.7416e-07
512.0	4.7729e-07
512.2	4.8056e-07
512.4	4.8386e-07
512.6	4.8718e-07
512.8	4.9052e-07
513.0	4.9388e-07
513.2	4.9727e-07
513.4	5.0068e-07
513.6	5.0412e-07
513.8	5.0757e-07
514.0	5.1105e-07
514.2	5.1456e-07
514.4	5.1809e-07
514.6	5.2164e-07
514.8	5.2522e-07
515.0	5.2882e-07
515.2	5.3245e-07
515.4	5.361e-07
515.6	5.3994e-07
515.8	5.4485e-07
516.0	5.498e-07
516.2	5.548e-07
516.4	5.5984e-07
516.6	5.6493e-07
516.8	5.7006e-07
517.0	5.7525e-07
517.2	5.8047e-07
517.4	5.8575e-07
517.6	5.9108e-07
517.8	5.9645e-07
518.0	6.0187e-07
518.2	6.0734e-07
518.4	6.1286e-07
518.6	6.1843e-07
518.8	6.2406e-07
519.0	6.2973e-07
519.2	6.3545e-07
519.4	6.4086e-07
519.6	6.4614e-07
519.8	6.5147e-07
520.0	6.5685e-07
520.2	6.6227e-07
520.4	6.6773e-07
520.6	6.7324e-07
520.8	6.7879e-07
521.0	6.8439e-07
521.2	6.9004e-07
521.4	6.9573e-07
521.6	7.0147e-07
521.8	7.0725e-07
522.0	7.1309e-07
522.2	7.1897e-07
522.4	7.249e-07
522.6	7.3088e-07
522.8	7.3691e-07
523.0	7.0598e-07
523.2	5.8698e-07
523.4	4.8804e-07
523.6	4.0577e-07
523.8	3.3738e-07
524.0	2.8051e-07
524.2	2.3323e-07
524.4	1.9391e-07
524.6	1.6123e-07
524.8	1.3405e-07
525.0	1.1145e-07
525.2	9.2668e-08
525.4	8.2281e-08
525.6	8.3484e-08
525.8	8.4705e-08
526.0	8.5943e-08
526.2	8.72e-08
526.4	8.8475e-08
526.6	8.9769e-08
526.8	9.1082e-08
527.0	9.2414e-08
527.2	9.3765e-08
527.4	9.5137e-08
527.6	9.6528e-08
527.8	9.7939e-08
528.0	9.9372e-08
528.2	1.0082e-07
528.4	1.023e-07
528.6	1.038e-07
528.8	1.0531e-07
529.0	1.0615e-07
529.2	1.0673e-07
529.4	1.0731e-07
529.6	1.0789e-07
529.8	1.0847e-07
530.0	1.0906e-07
530.2	1.0965e-07
530.4	1.1025e-07
530.6	1.1085e-07
530.8	1.1145e-07
531.0	1.1205e-07
531.2	1.1266e-07
531.4	1.1327e-07
531.6	1.1389e-07
531.8	1.1451e-07
532.0	1.1513e-07
532.2	1.1575e-07
532.4	1.1638e-07
532.6	1.1701e-07
532.8	1.1765e-07
533.0	1.1828e-07
533.2	1.1893e-07
533.4	1.1957e-07
533.6	1.2022e-07
533.8	1.2083e-07
534.0	1.2128e-07
534.2	1.2174e-07
534.4	1.222e-07
534.6	1.2266e-07
534.8	1.2313e-07
535.0	1.2359e-07
535.2	1.2406e-07
535.4	1.2453e-07
535.6	1.25e-07
535.8	1.2547e-07
536.0	1.2595e-07
536.2	1.2642e-07
536.4	1.269e-07
536.6	1.2738e-07
536.8	1.2786e-07
537.0	1.2835e-07
537.2	1.2883e-07
537.4	1.2932e-07
537.6	1.2981e-07
537.8	1.303e-07
538.0	1.3079e-07
538.2	1.3128e-07
538.4	1.3178e-07
538.6	1.3228e-07
538.8	1.3245e-07
539.0	1.325e-07
539.2	1.3256e-07
539.4	1.3261e-07
539.6	1.3266e-07
539.8	1.3272e-07
540.0	1.3277e-07
540.2	1.3283e-07
540.4	1.3288e-07
540.6	1.3293e-07
540.8	1.3299e-07
541.0	1.3304e-07
541.2	1.331e-07
541.4	1.3315e-07
541.6	1.332e-07
541.8	1.3326e-07
542.0	1.3331e-07
542.2	1.3337e-07
542.4	1.3342e-07
542.6	1.3348e-07
542.8	1.3353e-07
543.0	1.3358e-07
543.2	1.3364e-07
543.4	1.3369e-07
543.6	1.3375e-07
543.8	1.3381e-07
544.0	1.3388e-07
544.2	1.3394e-07
544.4	1.34e-07
544.6	1.3407e-07
544.8	1.3413e-07
545.0	1.342e-07
545.2	1.3426e-07
545.4	1.3433e-07
545.6	1.3439e-07
545.8	1.3445e-07
546.0	1.3452e-07
546.2	1.3458e-07
546.4	1.3465e-07
546.6	1.3471e-07
546.8	1.3477e-07
547.0	1.3484e-07
547.2	1.349e-07
547.4	1.3497e-07
547.6	1.3503e-07
547.8	1.351e-07
548.0	1.3516e-07
548.2	1.3523e-07
548.4	1.3529e-07
548.6	1.3602e-07
548.8	1.3698e-07
549.0	1.3796e-07
549.2	1.3894e-07
549.4	1.3993e-07
549.6	1.4092e-07
549.8	1.4192e-07
550.0	1.4293e-07
550.2	1.4395e-07
550.4	1.4497e-07
550.6	1.46e-07
550.8	1.4704e-07
551.0	1.4808e-07
551.2	1.4913e-07
551.4	1.5019e-07
551.6	1.5126e-07
551.8	1.5234e-07
552.0	1.5342e-07
552.2	1.5451e-07
552.4	1.5561e-07
552.6	1.5671e-07
552.8	1.5783e-07
553.0	1.5895e-07
553.2	1.6008e-07
553.4	1.609e-07
553.6	1.6073e-07
553.8	1.6057e-07
554.0	1.6041e-07
554.2	1.6025e-07
554.4	1.6009e-07
554.6	1.5993e-07
554.8	1.5977e-07
555.0	1.5961e-07
555.2	1.5945e-07
555.4	1.5929e-07
555.6	1.5913e-07
555.8	1.5897e-07
556.0	1.5881e-07
556.2	1.5865e-07
556.4	1.5849e-07
556.6	1.5833e-07
556.8	1.5817e-07
557.0	1.5801e-07
557.2	1.5786e-07
557.4	1.577e-07
557.6	1.5754e-07
557.8	1.5738e-07
558.0	1.5722e-07
558.2	1.5707e-07
558.4	1.5809e-07
558.6	1.595e-07
558.8	1.6093e-07
559.0	1.6237e-07
559.2	1.6382e-07
559.4	1.6529e-07
559.6	1.6676e-07
559.8	1.6826e-07
560.0	1.6976e-07
560.2	1.7128e-07
560.4	1.7281e-07
560.6	1.7436e-07
560.8	1.7592e-07
561.0	1.7749e-07
561.2	1.7908e-07
561.4	1.8068e-07
561.6	1.823e-07
561.8	1.8393e-07
562.0	1.8557e-07
562.2	1.8723e-07
562.4	1.8891e-07
562.6	1.906e-07
562.8	1.923e-07
563.0	1.9403e-07
563.2	1.9547e-07
563.4	1.9604e-07
563.6	1.9661e-07
563.8	1.9718e-07
564.0	1.9776e-07
564.2	1.9833e-07
564.4	1.9891e-07
564.6	1.9949e-07
564.8	2.0007e-07
565.0	2.0065e-07
565.2	2.0123e-07
565.4	2.0182e-07
565.6	2.0241e-07
565.8	2.0299e-07
566.0	2.0358e-07
566.2	2.0418e-07
566.4	2.0477e-07
566.6	2.0537e-07
566.8	2.0596e-07
567.0	2.0656e-07
567.2	2.0716e-07
567.4	2.0777e-07
567.6	2.0837e-07
567.8	2.0898e-07
568.0	2.0958e-07
568.2	2.1038e-07
568.4	2.1125e-07
568.6	2.1213e-07
568.8	2.13e-07
569.0	2.1389e-07
569.2	2.1477e-07
569.4	2.1566e-07
569.6	2.1655e-07
569.8	2.1745e-07
570.0	2.1835e-07
570.2	2.1925e-07
570.4	2.2016e-07
570.6	2.2107e-07
570.8	2.2199e-07
571.0	2.229e-07
571.2	2.2383e-07
571.4	2.2475e-07
571.6	2.2568e-07
571.8	2.2662e-07
572.0	2.2756e-07
572.2	2.285e-07
572.4	2.2944e-07
572.6	2.3039e-07
572.8	2.3135e-07
573.0	2.3219e-07
573.2	2.3267e-07
573.4	2.3316e-07
573.6	2.3365e-07
573.8	2.3413e-07
574.0	2.3462e-07
574.2	2.3511e-07
574.4	2.356e-07
574.6	2.361e-07
574.8	2.3659e-07
575.0	2.3708e-07
575.2	2.3758e-07
575.4	2.3807e-07
575.6	2.3857e-07
575.8	2.3907e-07
576.0	2.3957e-07
576.2	2.4007e-07
576.4	2.4057e-07
576.6	2.4107e-07
576.8	2.4264e-07
577.0	2.4525e-07
577.2	2.4789e-07
577.4	2.5056e-07
577.6	2.5326e-07
577.8	2.5598e-07
578.0	2.5874e-07
578.2	2.6153e-07
578.4	2.6434e-07
578.6	2.6719e-07
578.8	2.7006e-07
579.0	2.7297e-07
579.2	2.7591e-07
579.4	2.7888e-07
579.6	2.8188e-07
579.8	2.8492e-07
580.0	2.8798e-07
580.2	2.9108e-07
580.4	2.95e-07
580.6	2.99e-07
580.8	3.0305e-07
581.0	3.0715e-07
581.2	3.1131e-07
581.4	3.1553e-07
581.6	3.1981e-07
581.8	3.2414e-07
582.0	3.2853e-07
582.2	3.3298e-07
582.4	3.375e-07
582.6	3.2336e-07
582.8	2.398e-07
583.0	1.7784e-07
583.2	1.3188e-07
583.4	9.7803e-08
583.6	7.253e-08
583.8	5.3788e-08
584.0	3.9889e-08
584.2	4.7661e-08
584.4	7.2368e-08
584.6	6.8849e-08
584.8	3.9095e-08
585.0	1.2017e-07
585.2	6.3222e-08
585.4	8.2383e-08
585.6	4.8281e-08
585.8	4.8292e-08
586.0	6.9503e-08
586.2	2.9895e-07
586.4	7.9405e-08
586.6	6.7997e-08
586.8	1.5496e-07
587.0	1.4726e-07
587.2	9.0032e-08
587.4	3.8687e-08
587.6	9.0542e-08
587.8	5.9489e-08
588.0	7.7927e-08
588.2	4.445e-08
588.4	1.6633e-07
588.6	8.7943e-08
588.8	4.53e-08
589.0	6.6428e-08
589.2	1.3603e-07
589.4	1.285e-07
589.6	4.3751e-08
589.8	1.3654e-07
590.0	4.8964e-08
590.2	1.0954e-07
590.4	1.142e-07
590.6	1.3578e-07
590.8	1.4873e-07
591.0	5.3479e-08
591.2	1.3993e-07
591.4	1.5668e-07
591.6	2.3719e-07
591.8	1.0463e-07
592.0	1.8245e-07
592.2	2.206e-07
592.4	9.4997e-08
592.6	1.4404e-07
592.8	3.878e-07
593.0	2.4353e-07
593.2	3.3568e-07
593.4	4.1115e-07
593.6	5.7402e-07
593.8	6.5041e-07
594.0	9.2737e-07
594.2	1.0188e-06
594.4	1.4447e-06
594.6	1.9051e-06
594.8	2.0988e-06
595.0	3.173e-06
595.2	4.0275e-06
595.4	5.5965e-06
595.6	6.8045e-06
595.8	9.4718e-06
596.0	1.261e-05
596.2	1.7112e-05
596.4	2.2631e-05
596.6	3.0615e-05
596.8	4.4106e-05
597.0	6.2345e-05
597.2	8.8981e-05
597.4	1.2712e-04
597.6	1.7986e-04
597.8	2.579e-04
598.0	3.7547e-04
598.2	5.5312e-04
598.4	8.6911e-04
598.6	0.00132
598.8	0.00201
599.0	0.00311
599.2	0.00493
599.4	0.00796
599.6	0.0128
599.8	0.02066
600.0	0.03527
600.2	0.06172
600.4	0.11021
600.6	0.19682
600.8	0.34018
601.0	0.58713
601.2	0.78065
601.4	0.90536
601.6	0.95877
601.8	0.96988
602.0	0.96903
602.2	0.96736
602.4	0.96939
602.6	0.97291
602.8	0.9778
603.0	0.98144
603.2	0.98357
603.4	0.9842
603.6	0.98388
603.8	0.98258
604.0	0.9813
604.2	0.98046
604.4	0.97997
604.6	0.98019
604.8	0.98106
605.0	0.98137
605.2	0.9831
605.4	0.98456
605.6	0.9857
605.8	0.98645
606.0	0.9864
606.2	0.98729
606.4	0.98693
606.6	0.98652
606.8	0.98647
607.0	0.9857
607.2	0.9854
607.4	0.98601
607.6	0.98549
607.8	0.98621
608.0	0.98796
608.2	0.98999
608.4	0.99081
608.6	0.99133
608.8	0.99202
609.0	0.9925
609.2	0.99211
609.4	0.99216
609.6	0.9919
609.8	0.99175
610.0	0.99119
610.2	0.98991
610.4	0.98906
610.6	0.9878
610.8	0.98696
611.0	0.98591
611.2	0.98532
611.4	0.98461
611.6	0.98442
611.8	0.98387
612.0	0.9837
612.2	0.98443
612.4	0.98467
612.6	0.98563
612.8	0.98631
613.0	0.98771
613.2	0.98846
613.4	0.98943
613.6	0.99138
613.8	0.99192
614.0	0.99319
614.2	0.99302
614.4	0.9943
614.6	0.99465
614.8	0.99422
615.0	0.99412
615.2	0.99411
615.4	0.99256
615.6	0.99252
615.8	0.99203
616.0	0.9908
616.2	0.99011
616.4	0.98901
616.6	0.98842
616.8	0.98775
617.0	0.9869
617.2	0.98668
617.4	0.98652
617.6	0.9865
617.8	0.98618
618.0	0.98613
618.2	0.9863
618.4	0.9875
618.6	0.98816
618.8	0.98858
619.0	0.98915
619.2	0.9904
619.4	0.99163
619.6	0.99194
619.8	0.99322
620.0	0.99356
620.2	0.99376
620.4	0.995
620.6	0.99543
620.8	0.99516
621.0	0.99567
621.2	0.99513
621.4	0.99469
621.6	0.99396
621.8	0.99382
622.0	0.99297
622.2	0.99237
622.4	0.99154
622.6	0.99068
622.8	0.98992
623.0	0.9891
623.2	0.98854
623.4	0.98819
623.6	0.98778
623.8	0.98711
624.0	0.98695
624.2	0.98605
624.4	0.9863
624.6	0.98678
624.8	0.98664
625.0	0.98729
625.2	0.98745
625.4	0.98796
625.6	0.98818
625.8	0.98889
626.0	0.9898
626.2	0.99064
626.4	0.99144
626.6	0.99186
626.8	0.99199
627.0	0.99295
627.2	0.99366
627.4	0.99437
627.6	0.99475
627.8	0.99474
628.0	0.995
628.2	0.9948
628.4	0.99437
628.6	0.99443
628.8	0.99399
629.0	0.9944
629.2	0.99328
629.4	0.99304
629.6	0.99252
629.8	0.99201
630.0	0.9913
630.2	0.99109
630.4	0.99028
630.6	0.99028
630.8	0.98986
631.0	0.98889
631.2	0.98939
631.4	0.9891
631.6	0.98876
631.8	0.98914
632.0	0.98911
632.2	0.98943
632.4	0.9895
632.6	0.98997
632.8	0.99064
633.0	0.99079
633.2	0.99088
633.4	0.99226
633.6	0.99214
633.8	0.99278
634.0	0.99343
634.2	0.99418
634.4	0.99406
634.6	0.99451
634.8	0.99556
635.0	0.99537
635.2	0.9961
635.4	0.99502
635.6	0.99551
635.8	0.99584
636.0	0.99489
636.2	0.99564
636.4	0.99464
636.6	0.99417
636.8	0.99358
637.0	0.99332
637.2	0.9927
637.4	0.9926
637.6	0.99158
637.8	0.99093
638.0	0.99024
638.2	0.99045
638.4	0.98857
638.6	0.98867
638.8	0.98829
639.0	0.98787
639.2	0.9873
639.4	0.98745
639.6	0.98705
639.8	0.98703
640.0	0.98695
640.2	0.98758
640.4	0.9873
640.6	0.98812
640.8	0.98812
641.0	0.98831
641.2	0.98947
641.4	0.99028
641.6	0.99031
641.8	0.99123
642.0	0.99173
642.2	0.99229
642.4	0.9928
642.6	0.9933
642.8	0.99452
643.0	0.99478
643.2	0.99513
643.4	0.99594
643.6	0.99636
643.8	0.99575
644.0	0.99677
644.2	0.99714
644.4	0.99719
644.6	0.99671
644.8	0.99645
645.0	0.99622
645.2	0.99552
645.4	0.99554
645.6	0.99495
645.8	0.99455
646.0	0.99371
646.2	0.99331
646.4	0.99261
646.6	0.99172
646.8	0.99145
647.0	0.99029
647.2	0.98984
647.4	0.98948
647.6	0.98859
647.8	0.98834
648.0	0.98762
648.2	0.98717
648.4	0.98698
648.6	0.98694
648.8	0.98598
649.0	0.98643
649.2	0.98604
649.4	0.98579
649.6	0.98588
649.8	0.98624
650.0	0.98695
650.2	0.98694
650.4	0.98688
650.6	0.9876
650.8	0.98847
651.0	0.98835
651.2	0.98922
651.4	0.98975
651.6	0.99047
651.8	0.99122
652.0	0.99194
652.2	0.99198
652.4	0.99244
652.6	0.99278
652.8	0.99375
653.0	0.99421
653.2	0.99455
653.4	0.99454
653.6	0.9949
653.8	0.99529
654.0	0.99508
654.2	0.99481
654.4	0.99544
654.6	0.99497
654.8	0.9951
655.0	0.99542
655.2	0.99428
655.4	0.9942
655.6	0.99382
655.8	0.99312
656.0	0.99291
656.2	0.99327
656.4	0.99224
656.6	0.99166
656.8	0.99128
657.0	0.99068
657.2	0.99006
657.4	0.99007
657.6	0.98937
657.8	0.98985
658.0	0.98915
658.2	0.98881
658.4	0.9892
658.6	0.98915
658.8	0.98857
659.0	0.9886
659.2	0.98896
659.4	0.98951
659.6	0.9893
659.8	0.98969
660.0	0.98956
660.2	0.99004
660.4	0.99069
660.6	0.99076
660.8	0.99152
661.0	0.99215
661.2	0.99235
661.4	0.99229
661.6	0.99357
661.8	0.99335
662.0	0.99389
662.2	0.99387
662.4	0.99492
662.6	0.99476
662.8	0.99553
663.0	0.99508
663.2	0.99617
663.4	0.99603
663.6	0.9961
663.8	0.99604
664.0	0.99634
664.2	0.99606
664.4	0.99621
664.6	0.99612
664.8	0.99595
665.0	0.99538
665.2	0.99532
665.4	0.99453
665.6	0.99483
665.8	0.99424
666.0	0.99347
666.2	0.99314
666.4	0.9931
666.6	0.99286
666.8	0.99241
667.0	0.99208
667.2	0.99094
667.4	0.99144
667.6	0.991
667.8	0.99061
668.0	0.99045
668.2	0.98998
668.4	0.98959
668.6	0.98988
668.8	0.98958
669.0	0.9896
669.2	0.98905
669.4	0.98921
669.6	0.98918
669.8	0.98935
670.0	0.98964
670.2	0.99006
670.4	0.98952
670.6	0.98984
670.8	0.99013
671.0	0.99095
671.2	0.99088
671.4	0.99081
671.6	0.99118
671.8	0.99242
672.0	0.99198
672.2	0.99217
672.4	0.99253
672.6	0.9935
672.8	0.99296
673.0	0.99438
673.2	0.99409
673.4	0.99372
673.6	0.99428
673.8	0.99524
674.0	0.99494
674.2	0.99519
674.4	0.99537
674.6	0.99454
674.8	0.99576
675.0	0.99558
675.2	0.99492
675.4	0.99459
675.6	0.99377
675.8	0.99498
676.0	0.99398
676.2	0.9934
676.4	0.99334
676.6	0.99265
676.8	0.99251
677.0	0.9927
677.2	0.99214
677.4	0.99168
677.6	0.99143
677.8	0.99072
678.0	0.99001
678.2	0.99069
678.4	0.99002
678.6	0.98917
678.8	0.9892
679.0	0.98927
679.2	0.98881
679.4	0.98793
679.6	0.98813
679.8	0.98819
680.0	0.98731
680.2	0.98878
680.4	0.98847
680.6	0.98797
680.8	0.98765
681.0	0.98894
681.2	0.98834
681.4	0.98866
681.6	0.9895
681.8	0.98828
682.0	0.98919
682.2	0.98933
682.4	0.98984
682.6	0.9899
682.8	0.99009
683.0	0.99097
683.2	0.99097
683.4	0.99076
683.6	0.99146
683.8	0.99194
684.0	0.99213
684.2	0.99284
684.4	0.99271
684.6	0.99275
684.8	0.99336
685.0	0.99342
685.2	0.99336
685.4	0.99443
685.6	0.99347
685.8	0.9935
686.0	0.99434
686.2	0.99391
686.4	0.99354
686.6	0.99293
686.8	0.99327
687.0	0.99281
687.2	0.99274
687.4	0.99287
687.6	0.99182
687.8	0.99098
688.0	0.99063
688.2	0.99054
688.4	0.99115
688.6	0.99026
688.8	0.98974
689.0	0.98884
689.2	0.98832
689.4	0.9881
689.6	0.98842
689.8	0.98766
690.0	0.98763
690.2	0.98674
690.4	0.98635
690.6	0.98588
690.8	0.98581
691.0	0.98621
691.2	0.98556
691.4	0.98551
691.6	0.98485
691.8	0.98519
692.0	0.98522
692.2	0.98561
692.4	0.98574
692.6	0.9854
692.8	0.9852
693.0	0.98592
693.2	0.98621
693.4	0.98626
693.6	0.98631
693.8	0.98705
694.0	0.98707
694.2	0.98752
694.4	0.98804
694.6	0.98835
694.8	0.98854
695.0	0.98986
695.2	0.99021
695.4	0.99016
695.6	0.99049
695.8	0.99067
696.0	0.99127
696.2	0.99204
696.4	0.99185
696.6	0.99207
696.8	0.99323
697.0	0.9931
697.2	0.99392
697.4	0.99352
697.6	0.99332
697.8	0.99389
698.0	0.99398
698.2	0.99445
698.4	0.99336
698.6	0.99315
698.8	0.99396
699.0	0.99375
699.2	0.99326
699.4	0.99291
699.6	0.99311
699.8	0.99221
700.0	0.99225
700.2	0.99219
700.4	0.99147
700.6	0.99187
700.8	0.99082
701.0	0.99069
701.2	0.98995
701.4	0.99007
701.6	0.98972
701.8	0.98822
702.0	0.98791
702.2	0.98763
702.4	0.98634
702.6	0.98701
702.8	0.9858
703.0	0.98623
703.2	0.98497
703.4	0.98546
703.6	0.9844
703.8	0.98443
704.0	0.98404
704.2	0.98355
704.4	0.98372
704.6	0.98386
704.8	0.98309
705.0	0.98375
705.2	0.98367
705.4	0.98367
705.6	0.98368
705.8	0.9839
706.0	0.98373
706.2	0.98359
706.4	0.98405
706.6	0.98461
706.8	0.98451
707.0	0.98513
707.2	0.98479
707.4	0.98696
707.6	0.98615
707.8	0.98567
708.0	0.98715
708.2	0.98784
708.4	0.98838
708.6	0.9884
708.8	0.98876
709.0	0.98887
709.2	0.98977
709.4	0.99014
709.6	0.99045
709.8	0.99147
710.0	0.99108
710.2	0.99195
710.4	0.99234
710.6	0.99167
710.8	0.99231
711.0	0.99237
711.2	0.99328
711.4	0.9926
711.6	0.99315
711.8	0.99281
712.0	0.99351
712.2	0.99314
712.4	0.99311
712.6	0.99344
712.8	0.99322
713.0	0.99266
713.2	0.9924
713.4	0.99274
713.6	0.99269
713.8	0.99244
714.0	0.99137
714.2	0.99148
714.4	0.9917
714.6	0.99167
714.8	0.9902
715.0	0.98948
715.2	0.98973
715.4	0.98938
715.6	0.98872
715.8	0.98927
716.0	0.98762
716.2	0.98773
716.4	0.98688
716.6	0.98683
716.8	0.98685
717.0	0.9859
717.2	0.98602
717.4	0.98596
717.6	0.98512
717.8	0.98491
718.0	0.98486
718.2	0.98391
718.4	0.98454
718.6	0.98334
718.8	0.98405
719.0	0.98442
719.2	0.98368
719.4	0.98245
719.6	0.9833
719.8	0.98336
720.0	0.98345
720.2	0.98365
720.4	0.98321
720.6	0.98333
720.8	0.9829
721.0	0.98379
721.2	0.98399
721.4	0.98466
721.6	0.98383
721.8	0.98391
722.0	0.9841
722.2	0.98459
722.4	0.98427
722.6	0.98482
722.8	0.98459
723.0	0.98553
723.2	0.98584
723.4	0.98618
723.6	0.98545
723.8	0.98547
724.0	0.98545
724.2	0.9872
724.4	0.98676
724.6	0.98697
724.8	0.98674
725.0	0.98724
725.2	0.98679
725.4	0.98706
725.6	0.98783
725.8	0.98759
726.0	0.98717
726.2	0.98686
726.4	0.98742
726.6	0.98811
726.8	0.98779
727.0	0.98801
727.2	0.98675
727.4	0.98715
727.6	0.98689
727.8	0.98737
728.0	0.98754
728.2	0.98733
728.4	0.98697
728.6	0.98802
728.8	0.98699
729.0	0.9868
729.2	0.9862
729.4	0.98663
729.6	0.98698
729.8	0.9868
730.0	0.98637
730.2	0.98666
730.4	0.98653
730.6	0.98711
730.8	0.98707
731.0	0.98623
731.2	0.9854
731.4	0.98633
731.6	0.98623
731.8	0.98644
732.0	0.98661
732.2	0.98586
732.4	0.98556
732.6	0.98632
732.8	0.98628
733.0	0.98629
733.2	0.98714
733.4	0.98702
733.6	0.98701
733.8	0.98627
734.0	0.98691
734.2	0.98748
734.4	0.98733
734.6	0.98777
734.8	0.98768
735.0	0.98759
735.2	0.98763
735.4	0.98764
735.6	0.98851
735.8	0.98865
736.0	0.98852
736.2	0.98814
736.4	0.98857
736.6	0.98807
736.8	0.98916
737.0	0.98913
737.2	0.98926
737.4	0.98845
737.6	0.98867
737.8	0.98927
738.0	0.98964
738.2	0.98986
738.4	0.99048
738.6	0.98959
738.8	0.98928
739.0	0.98992
739.2	0.98995
739.4	0.98952
739.6	0.98954
739.8	0.98922
740.0	0.98924
740.2	0.98922
740.4	0.98908
740.6	0.98866
740.8	0.98846
741.0	0.9885
741.2	0.98839
741.4	0.98828
741.6	0.98765
741.8	0.98741
742.0	0.9873
742.2	0.98707
742.4	0.98725
742.6	0.98668
742.8	0.98651
743.0	0.98675
743.2	0.98648
743.4	0.98615
743.6	0.9859
743.8	0.98564
744.0	0.98548
744.2	0.98512
744.4	0.98494
744.6	0.98468
744.8	0.98496
745.0	0.98452
745.2	0.98397
745.4	0.98417
745.6	0.98436
745.8	0.98426
746.0	0.98448
746.2	0.98442
746.4	0.98414
746.6	0.98409
746.8	0.98394
747.0	0.98458
747.2	0.9843
747.4	0.98377
747.6	0.98425
747.8	0.98452
748.0	0.98477
748.2	0.98449
748.4	0.98506
748.6	0.98521
748.8	0.9856
749.0	0.9854
749.2	0.98591
749.4	0.98575
749.6	0.98601
749.8	0.98616
750.0	0.9868
750.2	0.98667
750.4	0.98692
750.6	0.98752
750.8	0.98779
751.0	0.98789
751.2	0.98802
751.4	0.98881
751.6	0.98881
751.8	0.98849
752.0	0.98895
752.2	0.98857
752.4	0.98909
752.6	0.98936
752.8	0.98894
753.0	0.98928
753.2	0.98965
753.4	0.98984
753.6	0.98948
753.8	0.98895
754.0	0.98968
754.2	0.98967
754.4	0.98995
754.6	0.98938
754.8	0.98987
755.0	0.9892
755.2	0.98917
755.4	0.98871
755.6	0.98912
755.8	0.98894
756.0	0.98889
756.2	0.98848
756.4	0.98861
756.6	0.98848
756.8	0.98808
757.0	0.98759
757.2	0.9875
757.4	0.9871
757.6	0.98672
757.8	0.98631
758.0	0.98608
758.2	0.9863
758.4	0.98572
758.6	0.98561
758.8	0.98516
759.0	0.98529
759.2	0.98495
759.4	0.98444
759.6	0.98408
759.8	0.98422
760.0	0.98348
760.2	0.98321
760.4	0.9832
760.6	0.98301
760.8	0.98277
761.0	0.98226
761.2	0.98255
761.4	0.98211
761.6	0.98194
761.8	0.98195
762.0	0.98208
762.2	0.98208
762.4	0.98116
762.6	0.98193
762.8	0.98148
763.0	0.98223
763.2	0.98177
763.4	0.98221
763.6	0.98186
763.8	0.98212
764.0	0.98238
764.2	0.98241
764.4	0.9821
764.6	0.98258
764.8	0.98334
765.0	0.98249
765.2	0.98344
765.4	0.98339
765.6	0.98363
765.8	0.9842
766.0	0.98421
766.2	0.98444
766.4	0.98433
766.6	0.98428
766.8	0.98451
767.0	0.98512
767.2	0.98526
767.4	0.98533
767.6	0.98599
767.8	0.98602
768.0	0.98611
768.2	0.98588
768.4	0.98636
768.6	0.98644
768.8	0.98687
769.0	0.98685
769.2	0.98695
769.4	0.98727
769.6	0.98736
769.8	0.98753
770.0	0.98716
770.2	0.98809
770.4	0.98764
770.6	0.98767
770.8	0.98771
771.0	0.98805
771.2	0.98823
771.4	0.98796
771.6	0.98807
771.8	0.9882
772.0	0.98741
772.2	0.98752
772.4	0.98689
772.6	0.98734
772.8	0.98745
773.0	0.98708
773.2	0.98654
773.4	0.98657
773.6	0.98723
773.8	0.98625
774.0	0.98627
774.2	0.98689
774.4	0.98598
774.6	0.98577
774.8	0.98519
775.0	0.98472
775.2	0.98477
775.4	0.98453
775.6	0.98406
775.8	0.98451
776.0	0.98373
776.2	0.98361
776.4	0.98362
776.6	0.98314
776.8	0.98255
777.0	0.98266
777.2	0.98257
777.4	0.98192
777.6	0.98205
777.8	0.98162
778.0	0.98145
778.2	0.9814
778.4	0.98089
778.6	0.98127
778.8	0.98096
779.0	0.98118
779.2	0.98056
779.4	0.98058
779.6	0.9807
779.8	0.98016
780.0	0.98001
780.2	0.97967
780.4	0.97983
780.6	0.97973
780.8	0.97967
781.0	0.97971
781.2	0.97932
781.4	0.97973
781.6	0.97988
781.8	0.97896
782.0	0.97966
782.2	0.97981
782.4	0.97933
782.6	0.97947
782.8	0.97949
783.0	0.97967
783.2	0.97994
783.4	0.97968
783.6	0.97943
783.8	0.97964
784.0	0.97973
784.2	0.97955
784.4	0.97905
784.6	0.97963
784.8	0.97934
785.0	0.97945
785.2	0.9801
785.4	0.97998
785.6	0.98001
785.8	0.98007
786.0	0.98024
786.2	0.98001
786.4	0.97978
786.6	0.97965
786.8	0.9798
787.0	0.97971
787.2	0.97927
787.4	0.98017
787.6	0.97988
787.8	0.97983
788.0	0.97984
788.2	0.9798
788.4	0.98005
788.6	0.97978
788.8	0.98048
789.0	0.97996
789.2	0.98006
789.4	0.97969
789.6	0.97983
789.8	0.9802
790.0	0.97981
790.2	0.9795
790.4	0.97986
790.6	0.97923
790.8	0.97974
791.0	0.97933
791.2	0.97961
791.4	0.97937
791.6	0.97985
791.8	0.97964
792.0	0.97902
792.2	0.97901
792.4	0.97905
792.6	0.97937
792.8	0.97932
793.0	0.97904
793.2	0.97956
793.4	0.97962
793.6	0.97902
793.8	0.97945
794.0	0.97968
794.2	0.98003
794.4	0.98003
794.6	0.97966
794.8	0.98005
795.0	0.97864
795.2	0.97886
795.4	0.97873
795.6	0.97911
795.8	0.9792
796.0	0.97924
796.2	0.97958
796.4	0.97955
796.6	0.97957
796.8	0.97967
797.0	0.9801
797.2	0.98052
797.4	0.98056
797.6	0.98041
797.8	0.98085
798.0	0.98084
798.2	0.98153
798.4	0.9815
798.6	0.9816
798.8	0.98199
799.0	0.98198
799.2	0.98202
799.4	0.98225
799.6	0.9824
799.8	0.98266
800.0	0.98283
800.2	0.98322
800.4	0.98305
800.6	0.9834
800.8	0.98358
801.0	0.98352
801.2	0.98382
801.4	0.98378
801.6	0.98417
801.8	0.98439
802.0	0.98465
802.2	0.98487
802.4	0.98419
802.6	0.98461
802.8	0.98433
803.0	0.98477
803.2	0.9851
803.4	0.98377
803.6	0.98414
803.8	0.98422
804.0	0.98467
804.2	0.98468
804.4	0.98516
804.6	0.98521
804.8	0.98564
805.0	0.98434
805.2	0.98473
805.4	0.984
805.6	0.98391
805.8	0.98374
806.0	0.98379
806.2	0.98315
806.4	0.98319
806.6	0.98253
806.8	0.98264
807.0	0.98267
807.2	0.98359
807.4	0.98353
807.6	0.98337
807.8	0.98217
808.0	0.98256
808.2	0.98177
808.4	0.98145
808.6	0.98108
808.8	0.98118
809.0	0.98157
809.2	0.9803
809.4	0.97956
809.6	0.98024
809.8	0.97907
810.0	0.9796
810.2	0.97989
810.4	0.97954
810.6	0.97943
810.8	0.9791
811.0	0.97989
811.2	0.97923
811.4	0.97869
811.6	0.97873
811.8	0.97802
812.0	0.97757
812.2	0.97778
812.4	0.97704
812.6	0.97698
812.8	0.97728
813.0	0.97675
813.2	0.97685
813.4	0.97749
813.6	0.97734
813.8	0.97647
814.0	0.97681
814.2	0.9771
814.4	0.97728
814.6	0.9769
814.8	0.97737
815.0	0.97652
815.2	0.97669
815.4	0.97652
815.6	0.9769
815.8	0.97682
816.0	0.97731
816.2	0.97606
816.4	0.97679
816.6	0.97763
816.8	0.97815
817.0	0.97745
817.2	0.97741
817.4	0.97787
817.6	0.97849
817.8	0.97816
818.0	0.9786
818.2	0.97869
818.4	0.97834
818.6	0.97911
818.8	0.97921
819.0	0.97898
819.2	0.97927
819.4	0.97949
819.6	0.98024
819.8	0.97991
820.0	0.97946
820.2	0.98005
820.4	0.97973
820.6	0.97983
820.8	0.98043
821.0	0.98084
821.2	0.98069
821.4	0.98139
821.6	0.98061
821.8	0.98123
822.0	0.98125
822.2	0.98172
822.4	0.98185
822.6	0.98178
822.8	0.98148
823.0	0.98165
823.2	0.98211
823.4	0.98202
823.6	0.98138
823.8	0.98165
824.0	0.98194
824.2	0.98217
824.4	0.98293
824.6	0.9823
824.8	0.98199
825.0	0.98196
825.2	0.9818
825.4	0.98264
825.6	0.98194
825.8	0.98215
826.0	0.98212
826.2	0.98219
826.4	0.98258
826.6	0.98219
826.8	0.98196
827.0	0.98228
827.2	0.98237
827.4	0.98298
827.6	0.98228
827.8	0.98154
828.0	0.98192
828.2	0.98219
828.4	0.98166
828.6	0.98193
828.8	0.98219
829.0	0.98162
829.2	0.98178
829.4	0.98199
829.6	0.9818
829.8	0.98196
830.0	0.98128
830.2	0.98168
830.4	0.98194
830.6	0.98157
830.8	0.98164
831.0	0.98214
831.2	0.98199
831.4	0.98195
831.6	0.98212
831.8	0.98188
832.0	0.98269
832.2	0.98206
832.4	0.98116
832.6	0.98202
832.8	0.98266
833.0	0.98225
833.2	0.98213
833.4	0.98182
833.6	0.98192
833.8	0.98233
834.0	0.98184
834.2	0.98232
834.4	0.98267
834.6	0.98242
834.8	0.98257
835.0	0.98282
835.2	0.98259
835.4	0.98276
835.6	0.98324
835.8	0.98338
836.0	0.98338
836.2	0.98345
836.4	0.98273
836.6	0.98313
836.8	0.98311
837.0	0.98368
837.2	0.9842
837.4	0.98346
837.6	0.98399
837.8	0.98396
838.0	0.9833
838.2	0.9842
838.4	0.98428
838.6	0.98412
838.8	0.98384
839.0	0.98398
839.2	0.9841
839.4	0.98477
839.6	0.9845
839.8	0.98442
840.0	0.98405
840.2	0.98354
840.4	0.98453
840.6	0.98464
840.8	0.98567
841.0	0.9839
841.2	0.98335
841.4	0.98398
841.6	0.98449
841.8	0.9836
842.0	0.98403
842.2	0.98345
842.4	0.98374
842.6	0.98428
842.8	0.98361
843.0	0.98339
843.2	0.98353
843.4	0.9826
843.6	0.98288
843.8	0.98396
844.0	0.9828
844.2	0.98328
844.4	0.98273
844.6	0.98169
844.8	0.98198
845.0	0.98212
845.2	0.982
845.4	0.98304
845.6	0.98227
845.8	0.98162
846.0	0.98219
846.2	0.98159
846.4	0.98181
846.6	0.9814
846.8	0.98101
847.0	0.98093
847.2	0.98075
847.4	0.98066
847.6	0.98103
847.8	0.98065
848.0	0.98016
848.2	0.98031
848.4	0.98002
848.6	0.97982
848.8	0.98016
849.0	0.97967
849.2	0.97917
849.4	0.97918
849.6	0.97941
849.8	0.9792
850.0	0.97944
850.2	0.97967
850.4	0.97957
850.6	0.9796
850.8	0.97892
851.0	0.97932
851.2	0.97956
851.4	0.9795
851.6	0.97918
851.8	0.97908
852.0	0.97889
852.2	0.97899
852.4	0.9799
852.6	0.98011
852.8	0.97951
853.0	0.97976
853.2	0.97923
853.4	0.97973
853.6	0.97907
853.8	0.97987
854.0	0.98142
854.2	0.98008
854.4	0.98063
854.6	0.98011
854.8	0.98024
855.0	0.98138
855.2	0.98095
855.4	0.98109
855.6	0.98097
855.8	0.9803
856.0	0.98071
856.2	0.98086
856.4	0.98157
856.6	0.98168
856.8	0.98175
857.0	0.98172
857.2	0.9826
857.4	0.98221
857.6	0.98223
857.8	0.98218
858.0	0.98297
858.2	0.98299
858.4	0.9826
858.6	0.98262
858.8	0.98314
859.0	0.98332
859.2	0.98307
859.4	0.98362
859.6	0.98297
859.8	0.98341
860.0	0.98427
860.2	0.98385
860.4	0.98375
860.6	0.98408
860.8	0.98427
861.0	0.98372
861.2	0.98278
861.4	0.98351
861.6	0.98391
861.8	0.98442
862.0	0.98354
862.2	0.98335
862.4	0.98348
862.6	0.98344
862.8	0.98366
863.0	0.98356
863.2	0.98385
863.4	0.98364
863.6	0.98369
863.8	0.98247
864.0	0.98277
864.2	0.98325
864.4	0.98354
864.6	0.98273
864.8	0.98192
865.0	0.98321
865.2	0.98187
865.4	0.98155
865.6	0.98188
865.8	0.9823
866.0	0.98213
866.2	0.98084
866.4	0.98042
866.6	0.9814
866.8	0.9812
867.0	0.98016
867.2	0.98021
867.4	0.98061
867.6	0.98106
867.8	0.98031
868.0	0.9799
868.2	0.97996
868.4	0.98023
868.6	0.98027
868.8	0.97956
869.0	0.97958
869.2	0.97932
869.4	0.97909
869.6	0.97948
869.8	0.97924
870.0	0.97905
870.2	0.9791
870.4	0.97903
870.6	0.97885
870.8	0.97892
871.0	0.97874
871.2	0.97848
871.4	0.97833
871.6	0.97821
871.8	0.97809
872.0	0.97817
872.2	0.97805
872.4	0.97798
872.6	0.97819
872.8	0.97828
873.0	0.9782
873.2	0.97831
873.4	0.97854
873.6	0.97856
873.8	0.97861
874.0	0.97863
874.2	0.97862
874.4	0.97907
874.6	0.97916
874.8	0.97895
875.0	0.97917
875.2	0.97906
875.4	0.97943
875.6	0.97962
875.8	0.97976
876.0	0.97974
876.2	0.97992
876.4	0.98009
876.6	0.98038
876.8	0.98052
877.0	0.98069
877.2	0.98084
877.4	0.98147
877.6	0.98179
877.8	0.98201
878.0	0.98274
878.2	0.98241
878.4	0.98258
878.6	0.98264
878.8	0.98298
879.0	0.98312
879.2	0.98353
879.4	0.98331
879.6	0.98364
879.8	0.98393
880.0	0.98395
880.2	0.98418
880.4	0.98428
880.6	0.98465
880.8	0.98488
881.0	0.98511
881.2	0.98522
881.4	0.98558
881.6	0.98573
881.8	0.98588
882.0	0.98587
882.2	0.98588
882.4	0.98597
882.6	0.98605
882.8	0.98618
883.0	0.98641
883.2	0.98649
883.4	0.98597
883.6	0.98659
883.8	0.98635
884.0	0.98642
884.2	0.98641
884.4	0.98651
884.6	0.98654
884.8	0.98635
885.0	0.9865
885.2	0.98651
885.4	0.98667
885.6	0.98656
885.8	0.98649
886.0	0.98634
886.2	0.9858
886.4	0.98628
886.6	0.98604
886.8	0.98577
887.0	0.98596
887.2	0.98557
887.4	0.98554
887.6	0.98551
887.8	0.98536
888.0	0.98495
888.2	0.98462
888.4	0.98476
888.6	0.98447
888.8	0.98429
889.0	0.98376
889.2	0.98368
889.4	0.98348
889.6	0.98314
889.8	0.98269
890.0	0.98265
890.2	0.98231
890.4	0.9821
890.6	0.98185
890.8	0.98172
891.0	0.98141
891.2	0.9812
891.4	0.98093
891.6	0.98096
891.8	0.98107
892.0	0.98053
892.2	0.98032
892.4	0.98011
892.6	0.98034
892.8	0.98019
893.0	0.97991
893.2	0.97968
893.4	0.97994
893.6	0.97946
893.8	0.97944
894.0	0.97948
894.2	0.97924
894.4	0.97902
894.6	0.97892
894.8	0.97872
895.0	0.97864
895.2	0.97878
895.4	0.97839
895.6	0.9783
895.8	0.97844
896.0	0.97847
896.2	0.97852
896.4	0.97822
896.6	0.97798
896.8	0.9784
897.0	0.97871
897.2	0.97848
897.4	0.97834
897.6	0.97857
897.8	0.97865
898.0	0.97874
898.2	0.97883
898.4	0.97881
898.6	0.97873
898.8	0.97887
899.0	0.97914
899.2	0.97956
899.4	0.97971
899.6	0.9797
899.8	0.97997
900.0	0.97996
900.2	0.98011
900.4	0.98047
900.6	0.98032
900.8	0.98051
901.0	0.98108
901.2	0.98097
901.4	0.98109
901.6	0.98123
901.8	0.98157
902.0	0.98207
902.2	0.98208
902.4	0.98217
902.6	0.98238
902.8	0.98219
903.0	0.98253
903.2	0.9829
903.4	0.98294
903.6	0.98303
903.8	0.98339
904.0	0.98354
904.2	0.98396
904.4	0.98409
904.6	0.98388
904.8	0.9842
905.0	0.98405
905.2	0.98436
905.4	0.98454
905.6	0.98484
905.8	0.9847
906.0	0.98501
906.2	0.98516
906.4	0.98536
906.6	0.98509
906.8	0.98526
907.0	0.98532
907.2	0.98549
907.4	0.9854
907.6	0.98526
907.8	0.98556
908.0	0.98551
908.2	0.98559
908.4	0.98552
908.6	0.98553
908.8	0.98521
909.0	0.98532
909.2	0.9857
909.4	0.98561
909.6	0.98526
909.8	0.98527
910.0	0.98524
910.2	0.9853
910.4	0.98501
910.6	0.98533
910.8	0.98477
911.0	0.98491
911.2	0.98476
911.4	0.9842
911.6	0.98434
911.8	0.98412
912.0	0.98395
912.2	0.98381
912.4	0.98335
912.6	0.98358
912.8	0.98319
913.0	0.98321
913.2	0.98305
913.4	0.98314
913.6	0.98323
913.8	0.98257
914.0	0.98233
914.2	0.98232
914.4	0.98208
914.6	0.98191
914.8	0.98184
915.0	0.98179
915.2	0.98143
915.4	0.98128
915.6	0.98142
915.8	0.98113
916.0	0.98104
916.2	0.98078
916.4	0.98052
916.6	0.98014
916.8	0.98027
917.0	0.98007
917.2	0.98018
917.4	0.98
917.6	0.97987
917.8	0.98004
918.0	0.97994
918.2	0.97973
918.4	0.97976
918.6	0.97951
918.8	0.97991
919.0	0.98017
919.2	0.97933
919.4	0.97955
919.6	0.9799
919.8	0.97958
920.0	0.97957
920.2	0.97949
920.4	0.97961
920.6	0.9795
920.8	0.97956
921.0	0.97995
921.2	0.97957
921.4	0.97975
921.6	0.98
921.8	0.98013
922.0	0.98011
922.2	0.98028
922.4	0.98057
922.6	0.98076
922.8	0.98076
923.0	0.9811
923.2	0.98091
923.4	0.98116
923.6	0.98145
923.8	0.98135
924.0	0.98149
924.2	0.98179
924.4	0.98226
924.6	0.98219
924.8	0.98222
925.0	0.98273
925.2	0.98284
925.4	0.98309
925.6	0.98365
925.8	0.98383
926.0	0.98389
926.2	0.98424
926.4	0.9844
926.6	0.98449
926.8	0.98502
927.0	0.985
927.2	0.98538
927.4	0.98528
927.6	0.98545
927.8	0.98552
928.0	0.98602
928.2	0.986
928.4	0.98666
928.6	0.98666
928.8	0.9865
929.0	0.98667
929.2	0.98724
929.4	0.98722
929.6	0.98718
929.8	0.98736
930.0	0.9876
930.2	0.98763
930.4	0.98748
930.6	0.9878
930.8	0.98812
931.0	0.98832
931.2	0.98856
931.4	0.98808
931.6	0.98905
931.8	0.98895
932.0	0.98958
932.2	0.9909
932.4	0.98941
932.6	0.99006
932.8	0.99041
933.0	0.99109
933.2	0.99263
933.4	0.98895
933.6	0.99223
933.8	0.99043
934.0	0.99595
934.2	0.99024
934.4	0.98756
934.6	0.98977
934.8	0.99102
935.0	0.99205
935.2	0.99522
935.4	0.9873
935.6	0.99316
935.8	0.98806
936.0	0.99055
936.2	0.99273
936.4	0.99191
936.6	0.98985
936.8	0.99213
937.0	0.98887
937.2	0.98853
937.4	0.99196
937.6	0.99138
937.8	0.99158
938.0	0.98675
938.2	0.98839
938.4	0.99212
938.6	0.98854
938.8	0.98898
939.0	0.98839
939.2	0.98893
939.4	0.98812
939.6	0.98869
939.8	0.98807
940.0	0.98794
940.2	0.98846
940.4	0.98673
940.6	0.98622
940.8	0.98735
941.0	0.98486
941.2	0.98495
941.4	0.9858
941.6	0.98645
941.8	0.98532
942.0	0.98522
942.2	0.98456
942.4	0.9883
942.6	0.98563
942.8	0.98244
943.0	0.98347
943.2	0.98381
943.4	0.98381
943.6	0.98392
943.8	0.98771
944.0	0.98051
944.2	0.98249
944.4	0.98305
944.6	0.9835
944.8	0.98313
945.0	0.98245
945.2	0.9836
945.4	0.98379
945.6	0.9809
945.8	0.98481
946.0	0.97966
946.2	0.98256
946.4	0.98272
946.6	0.98313
946.8	0.98172
947.0	0.98183
947.2	0.98393
947.4	0.98262
947.6	0.9832
947.8	0.98565
948.0	0.98248
948.2	0.98059
948.4	0.98329
948.6	0.98307
948.8	0.98358
949.0	0.98428
949.2	0.98548
949.4	0.98137
949.6	0.98417
949.8	0.98733
950.0	0.98247
950.2	0.98357
950.4	0.98512
950.6	0.98526
950.8	0.9851
951.0	0.98501
951.2	0.98543
951.4	0.98716
951.6	0.98512
951.8	0.98576
952.0	0.98866
952.2	0.98392
952.4	0.98665
952.6	0.98774
952.8	0.98657
953.0	0.98735
953.2	0.98813
953.4	0.98813
953.6	0.98732
953.8	0.98846
954.0	0.98853
954.2	0.99054
954.4	0.98713
954.6	0.98933
954.8	0.98935
955.0	0.99026
955.2	0.98981
955.4	0.9898
955.6	0.99021
955.8	0.98972
956.0	0.99084
956.2	0.99105
956.4	0.99253
956.6	0.99003
956.8	0.98969
957.0	0.99075
957.2	0.99096
957.4	0.99175
957.6	0.99209
957.8	0.99285
958.0	0.99009
958.2	0.99044
958.4	0.99228
958.6	0.99226
958.8	0.99159
959.0	0.99166
959.2	0.99119
959.4	0.99183
959.6	0.9927
959.8	0.99166
960.0	0.99159
960.2	0.99238
960.4	0.99113
960.6	0.99158
960.8	0.99249
961.0	0.99163
961.2	0.99209
961.4	0.99121
961.6	0.99122
961.8	0.99128
962.0	0.99122
962.2	0.99099
962.4	0.99182
962.6	0.99064
962.8	0.99031
963.0	0.99023
963.2	0.99031
963.4	0.99068
963.6	0.99022
963.8	0.99111
964.0	0.99032
964.2	0.99029
964.4	0.98975
964.6	0.98924
964.8	0.9888
965.0	0.98863
965.2	0.98908
965.4	0.98927
965.6	0.98888
965.8	0.98889
966.0	0.98872
966.2	0.98859
966.4	0.98822
966.6	0.98779
966.8	0.98759
967.0	0.9873
967.2	0.9874
967.4	0.98681
967.6	0.98728
967.8	0.98764
968.0	0.98596
968.2	0.98722
968.4	0.98685
968.6	0.98607
968.8	0.98603
969.0	0.98657
969.2	0.9861
969.4	0.98573
969.6	0.98541
969.8	0.98622
970.0	0.98592
970.2	0.98486
970.4	0.98475
970.6	0.98613
970.8	0.98558
971.0	0.98508
971.2	0.985
971.4	0.98482
971.6	0.98538
971.8	0.98565
972.0	0.98519
972.2	0.98519
972.4	0.98482
972.6	0.98451
972.8	0.98376
973.0	0.98486
973.2	0.98517
973.4	0.9848
973.6	0.98459
973.8	0.98448
974.0	0.98492
974.2	0.98576
974.4	0.98495
974.6	0.98462
974.8	0.98478
975.0	0.98496
975.2	0.9857
975.4	0.98455
975.6	0.98497
975.8	0.9851
976.0	0.98565
976.2	0.98587
976.4	0.98558
976.6	0.98624
976.8	0.98612
977.0	0.98615
977.2	0.98647
977.4	0.98692
977.6	0.98666
977.8	0.98664
978.0	0.98694
978.2	0.98716
978.4	0.98753
978.6	0.98687
978.8	0.98761
979.0	0.98784
979.2	0.98905
979.4	0.98854
979.6	0.98869
979.8	0.98798
980.0	0.98834
980.2	0.98866
980.4	0.98986
980.6	0.98994
980.8	0.98976
981.0	0.98968
981.2	0.9894
981.4	0.99002
981.6	0.99066
981.8	0.99052
982.0	0.99068
982.2	0.9909
982.4	0.99072
982.6	0.99085
982.8	0.99109
983.0	0.99101
983.2	0.99101
983.4	0.9913
983.6	0.99179
983.8	0.99249
984.0	0.99281
984.2	0.99238
984.4	0.9923
984.6	0.99279
984.8	0.99254
985.0	0.99241
985.2	0.99196
985.4	0.99263
985.6	0.99287
985.8	0.99241
986.0	0.99235
986.2	0.99312
986.4	0.99315
986.6	0.99292
986.8	0.99296
987.0	0.9931
987.2	0.99303
987.4	0.99338
987.6	0.9936
987.8	0.99361
988.0	0.99313
988.2	0.99292
988.4	0.9932
988.6	0.99318
988.8	0.9928
989.0	0.99283
989.2	0.99276
989.4	0.99324
989.6	0.99292
989.8	0.99314
990.0	0.99253
990.2	0.99234
990.4	0.99233
990.6	0.99257
990.8	0.99283
991.0	0.99224
991.2	0.99207
991.4	0.99212
991.6	0.99181
991.8	0.9915
992.0	0.99169
992.2	0.99118
992.4	0.9906
992.6	0.99086
992.8	0.99123
993.0	0.99026
993.2	0.99076
993.4	0.99016
993.6	0.99029
993.8	0.99035
994.0	0.99053
994.2	0.99012
994.4	0.98986
994.6	0.98931
994.8	0.98962
995.0	0.98898
995.2	0.98849
995.4	0.98893
995.6	0.98868
995.8	0.98786
996.0	0.98819
996.2	0.98915
996.4	0.98825
996.6	0.98825
996.8	0.98792
997.0	0.98816
997.2	0.98795
997.4	0.98797
997.6	0.98789
997.8	0.9879
998.0	0.98754
998.2	0.9874
998.4	0.98733
998.6	0.98633
998.8	0.98638
999.0	0.98696
999.2	0.98664
999.4	0.98719
999.6	0.98647
999.8	0.98628
1000.0	0.98443
1000.2	0.98122
1000.4	0.98127
1000.6	0.98117
1000.8	0.98082
1001.0	0.98074
1001.2	0.98043
1001.4	0.98083
1001.6	0.98128
1001.8	0.98153
1002.0	0.98084
1002.2	0.98117
1002.4	0.98079
1002.6	0.98028
1002.8	0.98143
1003.0	0.98093
1003.2	0.98097
1003.4	0.98097
1003.6	0.98134
1003.8	0.98136
1004.0	0.9812
1004.2	0.98119
1004.4	0.98206
1004.6	0.98116
1004.8	0.98103
1005.0	0.98163
1005.2	0.9814
1005.4	0.98141
1005.6	0.9816
1005.8	0.98224
1006.0	0.98209
1006.2	0.9823
1006.4	0.98252
1006.6	0.98256
1006.8	0.98289
1007.0	0.9824
1007.2	0.98244
1007.4	0.98316
1007.6	0.98285
1007.8	0.98335
1008.0	0.98359
1008.2	0.98384
1008.4	0.98384
1008.6	0.98351
1008.8	0.98347
1009.0	0.98372
1009.2	0.98451
1009.4	0.98443
1009.6	0.98492
1009.8	0.98487
1010.0	0.98503
1010.2	0.985
1010.4	0.98544
1010.6	0.98571
1010.8	0.98529
1011.0	0.98537
1011.2	0.98566
1011.4	0.98511
1011.6	0.98569
1011.8	0.98562
1012.0	0.9854
1012.2	0.98621
1012.4	0.98679
1012.6	0.98667
1012.8	0.98577
1013.0	0.98594
1013.2	0.9873
1013.4	0.98665
1013.6	0.98655
1013.8	0.98654
1014.0	0.98657
1014.2	0.98752
1014.4	0.9878
1014.6	0.98778
1014.8	0.98761
1015.0	0.9871
1015.2	0.98733
1015.4	0.98717
1015.6	0.9872
1015.8	0.98753
1016.0	0.98725
1016.2	0.98716
1016.4	0.98761
1016.6	0.98705
1016.8	0.98716
1017.0	0.98675
1017.2	0.98745
1017.4	0.98707
1017.6	0.98737
1017.8	0.98769
1018.0	0.98776
1018.2	0.98704
1018.4	0.98741
1018.6	0.987
1018.8	0.98639
1019.0	0.98649
1019.2	0.98648
1019.4	0.98632
1019.6	0.98628
1019.8	0.98635
1020.0	0.98646
1020.2	0.98567
1020.4	0.98567
1020.6	0.98537
1020.8	0.98575
1021.0	0.98579
1021.2	0.98494
1021.4	0.98475
1021.6	0.98466
1021.8	0.98447
1022.0	0.9849
1022.2	0.98478
1022.4	0.98458
1022.6	0.98422
1022.8	0.98439
1023.0	0.98329
1023.2	0.98397
1023.4	0.98403
1023.6	0.9833
1023.8	0.98368
1024.0	0.98312
1024.2	0.98306
1024.4	0.98276
1024.6	0.98238
1024.8	0.982
1025.0	0.98113
1025.2	0.98096
1025.4	0.98063
1025.6	0.98129
1025.8	0.98118
1026.0	0.98054
1026.2	0.98058
1026.4	0.98044
1026.6	0.98021
1026.8	0.98012
1027.0	0.97986
1027.2	0.97949
1027.4	0.97971
1027.6	0.97988
1027.8	0.97924
1028.0	0.9792
1028.2	0.97887
1028.4	0.97921
1028.6	0.97919
1028.8	0.97891
1029.0	0.97862
1029.2	0.97868
1029.4	0.97827
1029.6	0.97789
1029.8	0.97727
1030.0	0.97777
1030.2	0.9781
1030.4	0.97795
1030.6	0.97837
1030.8	0.97825
1031.0	0.97827
1031.2	0.97784
1031.4	0.97812
1031.6	0.97734
1031.8	0.97739
1032.0	0.97746
1032.2	0.97777
1032.4	0.97893
1032.6	0.97769
1032.8	0.97777
1033.0	0.97754
1033.2	0.97791
1033.4	0.97719
1033.6	0.97771
1033.8	0.97827
1034.0	0.97857
1034.2	0.97783
1034.4	0.97729
1034.6	0.97887
1034.8	0.97833
1035.0	0.97832
1035.2	0.97786
1035.4	0.97939
1035.6	0.97816
1035.8	0.97889
1036.0	0.97885
1036.2	0.97885
1036.4	0.979
1036.6	0.97951
1036.8	0.97943
1037.0	0.97957
1037.2	0.97888
1037.4	0.97939
1037.6	0.97971
1037.8	0.98006
1038.0	0.97925
1038.2	0.9794
1038.4	0.9807
1038.6	0.98025
1038.8	0.98119
1039.0	0.98045
1039.2	0.97982
1039.4	0.98016
1039.6	0.9807
1039.8	0.9803
1040.0	0.98015
1040.2	0.98119
1040.4	0.98088
1040.6	0.98144
1040.8	0.98162
1041.0	0.98113
1041.2	0.98126
1041.4	0.98172
1041.6	0.98147
1041.8	0.98217
1042.0	0.98061
1042.2	0.98202
1042.4	0.98126
1042.6	0.98089
1042.8	0.98158
1043.0	0.98185
1043.2	0.98186
1043.4	0.98325
1043.6	0.98324
1043.8	0.98234
1044.0	0.9828
1044.2	0.98277
1044.4	0.9834
1044.6	0.98242
1044.8	0.98172
1045.0	0.98238
1045.2	0.98258
1045.4	0.98296
1045.6	0.98274
1045.8	0.98373
1046.0	0.98282
1046.2	0.98264
1046.4	0.98263
1046.6	0.98207
1046.8	0.98419
1047.0	0.9831
1047.2	0.98246
1047.4	0.98344
1047.6	0.98325
1047.8	0.98242
1048.0	0.98281
1048.2	0.98289
1048.4	0.98293
1048.6	0.9831
1048.8	0.98257
1049.0	0.98178
1049.2	0.98189
1049.4	0.98259
1049.6	0.9831
1049.8	0.98239
1050.0	0.98108
1050.2	0.98155
1050.4	0.98116
1050.6	0.98068
1050.8	0.98175
1051.0	0.98007
1051.2	0.98083
1051.4	0.97987
1051.6	0.98037
1051.8	0.98077
1052.0	0.98017
1052.2	0.97997
1052.4	0.98026
1052.6	0.97936
1052.8	0.97992
1053.0	0.98031
1053.2	0.97978
1053.4	0.98037
1053.6	0.97897
1053.8	0.97847
1054.0	0.97964
1054.2	0.97829
1054.4	0.97864
1054.6	0.97864
1054.8	0.97873
1055.0	0.97867
1055.2	0.97813
1055.4	0.97766
1055.6	0.97819
1055.8	0.97717
1056.0	0.97686
1056.2	0.97777
1056.4	0.97657
1056.6	0.97716
1056.8	0.97709
1057.0	0.97671
1057.2	0.9758
1057.4	0.97593
1057.6	0.97533
1057.8	0.97724
1058.0	0.9761
1058.2	0.97548
1058.4	0.97608
1058.6	0.97641
1058.8	0.9759
1059.0	0.97563
1059.2	0.97531
1059.4	0.97442
1059.6	0.97463
1059.8	0.97446
1060.0	0.97443
1060.2	0.97585
1060.4	0.97436
1060.6	0.9745
1060.8	0.97472
1061.0	0.9744
1061.2	0.9753
1061.4	0.97367
1061.6	0.97518
1061.8	0.97557
1062.0	0.97289
1062.2	0.97359
1062.4	0.97345
1062.6	0.97473
1062.8	0.97471
1063.0	0.97378
1063.2	0.97494
1063.4	0.97432
1063.6	0.97401
1063.8	0.97479
1064.0	0.97465
1064.2	0.9748
1064.4	0.97501
1064.6	0.97456
1064.8	0.97393
1065.0	0.97462
1065.2	0.97405
1065.4	0.9738
1065.6	0.97617
1065.8	0.97491
1066.0	0.97434
1066.2	0.97577
1066.4	0.97533
1066.6	0.97577
1066.8	0.97659
1067.0	0.97473
1067.2	0.97633
1067.4	0.97616
1067.6	0.97585
1067.8	0.97684
1068.0	0.97645
1068.2	0.97558
1068.4	0.97628
1068.6	0.97651
1068.8	0.97732
1069.0	0.97598
1069.2	0.97649
1069.4	0.97684
1069.6	0.97725
1069.8	0.97768
1070.0	0.97656
1070.2	0.97826
1070.4	0.97815
1070.6	0.97936
1070.8	0.97842
1071.0	0.97741
1071.2	0.97712
1071.4	0.97841
1071.6	0.97706
1071.8	0.97903
1072.0	0.9785
1072.2	0.97812
1072.4	0.97967
1072.6	0.97804
1072.8	0.97937
1073.0	0.9789
1073.2	0.97869
1073.4	0.98007
1073.6	0.97948
1073.8	0.97789
1074.0	0.97948
1074.2	0.97975
1074.4	0.97992
1074.6	0.97952
1074.8	0.98007
1075.0	0.97861
1075.2	0.98007
1075.4	0.97903
1075.6	0.9804
1075.8	0.97936
1076.0	0.98065
1076.2	0.9797
1076.4	0.98029
1076.6	0.9805
1076.8	0.98073
1077.0	0.98096
1077.2	0.98112
1077.4	0.97904
1077.6	0.98058
1077.8	0.98072
1078.0	0.97961
1078.2	0.97944
1078.4	0.97937
1078.6	0.97914
1078.8	0.97965
1079.0	0.97907
1079.2	0.97813
1079.4	0.98032
1079.6	0.98032
1079.8	0.97966
1080.0	0.98052
1080.2	0.9796
1080.4	0.97935
1080.6	0.97983
1080.8	0.9807
1081.0	0.97996
1081.2	0.98034
1081.4	0.98069
1081.6	0.97969
1081.8	0.97875
1082.0	0.97884
1082.2	0.97753
1082.4	0.97952
1082.6	0.97822
1082.8	0.97803
1083.0	0.97929
1083.2	0.9788
1083.4	0.97902
1083.6	0.97794
1083.8	0.97863
1084.0	0.97851
1084.2	0.97637
1084.4	0.97654
1084.6	0.97733
1084.8	0.97663
1085.0	0.97747
1085.2	0.97707
1085.4	0.97819
1085.6	0.97702
1085.8	0.97507
1086.0	0.97708
1086.2	0.97706
1086.4	0.97401
1086.6	0.97511
1086.8	0.9765
1087.0	0.97535
1087.2	0.97611
1087.4	0.97646
1087.6	0.97534
1087.8	0.97475
1088.0	0.97323
1088.2	0.97395
1088.4	0.97708
1088.6	0.97233
1088.8	0.97385
1089.0	0.97421
1089.2	0.97375
1089.4	0.97241
1089.6	0.97262
1089.8	0.97414
1090.0	0.97292
1090.2	0.9719
1090.4	0.97415
1090.6	0.9735
1090.8	0.97289
1091.0	0.97179
1091.2	0.97166
1091.4	0.97343
1091.6	0.97356
1091.8	0.9712
1092.0	0.97258
1092.2	0.97428
1092.4	0.97314
1092.6	0.96944
1092.8	0.97048
1093.0	0.97216
1093.2	0.97187
1093.4	0.97279
1093.6	0.97275
1093.8	0.97041
1094.0	0.97119
1094.2	0.97025
1094.4	0.97067
1094.6	0.97098
1094.8	0.97143
1095.0	0.97002
1095.2	0.97148
1095.4	0.97081
1095.6	0.97013
1095.8	0.96964
1096.0	0.97032
1096.2	0.97208
1096.4	0.97473
1096.6	0.97135
1096.8	0.97076
1097.0	0.97123
1097.2	0.97039
1097.4	0.97141
1097.6	0.97143
1097.8	0.97089
1098.0	0.9729
1098.2	0.97239
1098.4	0.96953
1098.6	0.973
1098.8	0.97337
1099.0	0.97287
1099.2	0.97144
1099.4	0.97253
1099.6	0.97314
1099.8	0.97273
1100.0	0.97408
1100.2	0.97265
1100.4	0.97358
1100.6	0.97318
1100.8	0.97293
1101.0	0.97369
1101.2	0.97192
1101.4	0.97423
1101.6	0.97211
1101.8	0.97271
1102.0	0.97225
1102.2	0.97374
1102.4	0.97359
1102.6	0.97212
1102.8	0.97602
1103.0	0.97483
1103.2	0.97287
1103.4	0.97348
1103.6	0.97601
1103.8	0.97682
1104.0	0.97536
1104.2	0.97493
1104.4	0.9718
1104.6	0.97583
1104.8	0.9762
1105.0	0.97424
1105.2	0.9731
1105.4	0.97736
1105.6	0.97549
1105.8	0.97375
1106.0	0.97403
1106.2	0.97702
1106.4	0.97131
1106.6	0.97663
1106.8	0.97389
1107.0	0.97547
1107.2	0.9758
1107.4	0.97513
1107.6	0.97677
1107.8	0.97573
1108.0	0.97427
1108.2	0.97489
1108.4	0.97643
1108.6	0.97597
1108.8	0.97431
1109.0	0.97486
1109.2	0.97507
1109.4	0.97516
1109.6	0.97215
1109.8	0.97468
1110.0	0.97356
1110.2	0.97335
1110.4	0.97647
1110.6	0.97433
1110.8	0.97317
1111.0	0.97302
1111.2	0.97237
1111.4	0.97184
1111.6	0.97097
1111.8	0.97349
1112.0	0.97385
